* Measurement data measured by REW V5.31.3
* Source: Microphone (4- USB Audio Device), MICROPHONE (Master Volume), R, volume: 0.250
* Format: 256k Log Swept Sine, 1 sweep at -12.0 dBFS with no timing reference
* Dated: 29-Sep-2024 12:10:27
* REW Settings:
*  C-weighting compensation: Off
*  Target level: 75.0 dB
* Note: 
* Measurement: Airpod 4 ANC (ANC on) L
* Smoothing: 1/12 octave
* Frequency Step: 1/48 octave
* Start Frequency: 20.300 Hz
*
* Freq(Hz)	SPL(dB)	Phase(degrees)
20.299999	63.677	-129.5559
20.600000	63.915	-130.6890
20.900000	64.209	-132.1454
21.200001	64.515	-133.7562
21.400000	64.718	-134.8766
21.799999	65.120	-137.1621
22.000000	65.319	-138.2993
22.400000	65.712	-140.4985
22.700001	66.005	-142.0432
23.000000	66.298	-143.4853
23.299999	66.592	-144.8389
23.600000	66.884	-146.1377
24.000000	67.267	-147.8550
24.299999	67.545	-149.1732
24.700001	67.898	-150.9937
25.000000	68.149	-152.3954
25.400000	68.472	-154.2777
25.799999	68.792	-156.1419
26.200001	69.116	-157.9764
26.500000	69.365	-159.3404
26.900000	69.700	-161.1600
27.200001	69.951	-162.5341
27.600000	70.280	-164.3834
28.000000	70.598	-166.2527
28.500000	70.978	-168.6187
29.000000	71.338	-171.0211
29.500000	71.675	-173.4477
30.000000	71.988	-175.8500
30.400000	72.221	-177.7061
30.700001	72.388	-179.0382
31.100000	72.605	179.2755
31.500000	72.820	177.6820
32.000000	73.091	175.7776
32.500000	73.361	173.9203
33.000000	73.625	172.0870
33.500000	73.880	170.2849
34.000000	74.126	168.5265
34.500000	74.364	166.8151
35.000000	74.598	165.1479
35.500000	74.830	163.5205
36.000000	75.062	161.9234
36.500000	75.292	160.3431
37.000000	75.514	158.7730
37.500000	75.720	157.2192
38.200001	75.978	155.0778
38.700001	76.140	153.5488
39.500000	76.369	151.0479
40.000000	76.494	149.4709
40.599998	76.637	147.6260
41.200001	76.779	145.8533
41.799999	76.919	144.1081
42.500000	77.066	142.0350
43.099998	77.170	140.2100
43.700001	77.264	138.3510
44.400002	77.372	136.1649
45.000000	77.468	134.3199
45.500000	77.548	132.8337
46.200001	77.656	130.8367
46.799999	77.741	129.1699
47.500000	77.832	127.2429
48.200001	77.922	125.3408
48.700001	77.988	124.0114
49.400002	78.073	122.2141
50.000000	78.130	120.7561
50.799999	78.183	118.9356
51.500000	78.222	117.4037
52.200001	78.269	115.8713
53.000000	78.332	114.1331
53.799999	78.395	112.4722
54.500000	78.445	111.0992
55.200001	78.493	109.7744
56.000000	78.551	108.2840
57.000000	78.627	106.4562
58.000000	78.693	104.7047
59.000000	78.750	103.0291
60.000000	78.813	101.4068
60.799999	78.869	100.1473
61.500000	78.915	99.0782
62.200001	78.956	98.0352
63.000000	78.998	96.8593
64.000000	79.052	95.4035
65.000000	79.107	93.9924
66.000000	79.159	92.6349
67.000000	79.208	91.2924
68.000000	79.256	89.9606
69.000000	79.306	88.6785
70.000000	79.354	87.4554
71.000000	79.395	86.2636
72.000000	79.428	85.0803
73.000000	79.458	83.8911
74.000000	79.487	82.6908
75.000000	79.515	81.4916
76.199997	79.545	80.0674
77.500000	79.567	78.5633
78.800003	79.579	77.1069
80.000000	79.583	75.7776
81.199997	79.584	74.4574
82.500000	79.585	73.0629
83.800003	79.578	71.7181
85.000000	79.564	70.5049
86.199997	79.545	69.2908
87.500000	79.519	67.9689
88.500000	79.492	66.9609
90.000000	79.438	65.4852
91.199997	79.381	64.3611
92.500000	79.308	63.2162
93.800003	79.227	62.1416
95.000000	79.149	61.2012
96.199997	79.073	60.3138
97.500000	78.988	59.4259
98.800003	78.900	58.6149
100.000000	78.816	57.9185
101.500000	78.707	57.0951
103.000000	78.592	56.3155
104.400002	78.479	55.6335
106.000000	78.346	54.9123
107.500000	78.216	54.2811
109.000000	78.082	53.6671
110.599998	77.942	53.0325
112.000000	77.826	52.5233
113.800003	77.680	51.9474
115.000000	77.583	51.6122
117.199997	77.410	51.1142
118.000000	77.348	50.9621
120.599998	77.150	50.4734
122.000000	77.040	50.1866
124.099998	76.873	49.7590
125.000000	76.803	49.5935
126.500000	76.688	49.3522
128.000000	76.578	49.1464
131.500000	76.324	48.7587
132.000000	76.287	48.7173
134.000000	76.139	48.5923
136.000000	75.991	48.5393
138.000000	75.846	48.5503
140.000000	75.703	48.6227
143.000000	75.493	48.8576
145.000000	75.358	49.0949
147.500000	75.192	49.5070
150.000000	75.030	50.0501
152.500000	74.874	50.6968
155.000000	74.731	51.4651
157.500000	74.603	52.3542
160.000000	74.486	53.3316
162.500000	74.385	54.3722
165.000000	74.306	55.4764
167.500000	74.247	56.6209
170.000000	74.208	57.8009
172.500000	74.187	58.9896
175.000000	74.179	60.1221
177.500000	74.182	61.1897
180.000000	74.197	62.2251
182.500000	74.224	63.2183
185.000000	74.264	64.1271
187.500000	74.316	64.9419
190.000000	74.381	65.6825
192.500000	74.454	66.3758
195.000000	74.532	67.0436
197.500000	74.613	67.6912
200.000000	74.698	68.3082
203.000000	74.804	68.9864
206.000000	74.909	69.5684
209.000000	75.009	70.0652
212.000000	75.106	70.5241
214.000000	75.167	70.8099
218.000000	75.276	71.3122
220.000000	75.323	71.5379
224.000000	75.399	71.9477
227.000000	75.440	72.2015
230.000000	75.469	72.4482
233.000000	75.486	72.7313
236.000000	75.492	73.0637
240.000000	75.488	73.5871
243.000000	75.483	74.0322
247.000000	75.476	74.6590
250.000000	75.472	75.1258
254.000000	75.465	75.7280
258.000000	75.451	76.3220
262.000000	75.435	76.8984
265.000000	75.426	77.3140
269.000000	75.417	77.8647
272.000000	75.409	78.2818
276.000000	75.392	78.8546
280.000000	75.365	79.4387
285.000000	75.324	80.1810
290.000000	75.273	81.0204
295.000000	75.221	81.9731
300.000000	75.178	83.0020
304.000000	75.151	83.8572
307.000000	75.133	84.4942
311.000000	75.111	85.3235
315.000000	75.086	86.1462
320.000000	75.050	87.1939
325.000000	75.013	88.2878
330.000000	74.982	89.4429
335.000000	74.960	90.6203
340.000000	74.941	91.7723
345.000000	74.916	92.9050
350.000000	74.888	94.0634
355.000000	74.863	95.2659
360.000000	74.839	96.5046
365.000000	74.809	97.7651
370.000000	74.773	99.0190
375.000000	74.735	100.2523
382.000000	74.695	101.9763
387.000000	74.677	103.2443
395.000000	74.667	105.3426
400.000000	74.667	106.6691
406.000000	74.663	108.2446
412.000000	74.655	109.7733
418.000000	74.649	111.2381
425.000000	74.650	112.8948
431.000000	74.659	114.3433
437.000000	74.673	115.8146
444.000000	74.691	117.4860
450.000000	74.709	118.8662
455.000000	74.726	119.9938
462.000000	74.753	121.5763
468.000000	74.779	122.9463
475.000000	74.812	124.5366
482.000000	74.846	126.1053
487.000000	74.870	127.2074
494.000000	74.902	128.7210
500.000000	74.930	130.0122
508.000000	74.970	131.7646
515.000000	75.008	133.3206
522.000000	75.044	134.8835
530.000000	75.084	136.6680
538.000000	75.127	138.4279
545.000000	75.166	139.9616
552.000000	75.204	141.5275
560.000000	75.250	143.3810
570.000000	75.313	145.7954
580.000000	75.380	148.3093
590.000000	75.448	150.8657
600.000000	75.515	153.4211
608.000000	75.565	155.4235
615.000000	75.607	157.1368
622.000000	75.647	158.8213
630.000000	75.693	160.7128
640.000000	75.753	163.0414
650.000000	75.812	165.3670
660.000000	75.871	167.6571
670.000000	75.922	169.8268
680.000000	75.967	171.8833
690.000000	76.013	173.9142
700.000000	76.061	175.9659
710.000000	76.108	177.9767
720.000000	76.153	179.8688
730.000000	76.189	-178.3425
740.000000	76.214	-176.5896
750.000000	76.233	-174.8589
762.000000	76.261	-172.8491
775.000000	76.297	-170.7553
788.000000	76.325	-168.7605
800.000000	76.345	-167.0170
812.000000	76.359	-165.3393
825.000000	76.363	-163.5364
838.000000	76.357	-161.7518
850.000000	76.338	-160.1360
862.000000	76.306	-158.5073
875.000000	76.262	-156.6667
885.000000	76.228	-155.1724
900.000000	76.181	-152.7935
912.000000	76.149	-150.7770
925.000000	76.121	-148.5314
938.000000	76.102	-146.2740
950.000000	76.092	-144.1997
962.000000	76.091	-142.1504
975.000000	76.099	-139.9700
988.000000	76.112	-137.8061
1000.000000	76.133	-135.7889
1015.000000	76.177	-133.2326
1030.000000	76.240	-130.6658
1044.000000	76.314	-128.2981
1060.000000	76.413	-125.6565
1075.000000	76.519	-123.2179
1090.000000	76.635	-120.8011
1106.000000	76.766	-118.2429
1120.000000	76.885	-116.0000
1138.000000	77.050	-113.0765
1150.000000	77.172	-111.0966
1172.000000	77.417	-107.4271
1180.000000	77.510	-106.0977
1206.000000	77.822	-101.8628
1220.000000	77.994	-99.6250
1241.000000	78.261	-96.2894
1250.000000	78.379	-94.8678
1265.000000	78.580	-92.5284
1280.000000	78.783	-90.2453
1315.000000	79.262	-85.1014
1320.000000	79.331	-84.3803
1340.000000	79.609	-81.5405
1360.000000	79.887	-78.8341
1380.000000	80.159	-76.3446
1400.000000	80.429	-74.0861
1430.000000	80.837	-71.0417
1450.000000	81.106	-69.1850
1475.000000	81.433	-67.0784
1500.000000	81.736	-65.3505
1525.000000	81.994	-64.0530
1550.000000	82.191	-63.0122
1575.000000	82.337	-61.9454
1600.000000	82.450	-60.6665
1625.000000	82.535	-59.0851
1650.000000	82.602	-57.1753
1675.000000	82.663	-54.9392
1700.000000	82.725	-52.4216
1725.000000	82.791	-49.7495
1750.000000	82.863	-47.0529
1775.000000	82.941	-44.3917
1800.000000	83.024	-41.7684
1825.000000	83.102	-39.2069
1850.000000	83.158	-36.7574
1875.000000	83.186	-34.4103
1900.000000	83.186	-32.1061
1925.000000	83.162	-29.7499
1950.000000	83.116	-27.2453
1975.000000	83.055	-24.5177
2000.000000	82.981	-21.5121
2030.000000	82.886	-17.5075
2060.000000	82.794	-13.1183
2090.000000	82.712	-8.4609
2120.000000	82.644	-3.6552
2140.000000	82.609	-0.4372
2180.000000	82.567	5.7854
2200.000000	82.557	8.6668
2240.000000	82.547	13.7693
2270.000000	82.544	16.9420
2300.000000	82.534	19.5675
2330.000000	82.501	21.7240
2360.000000	82.439	23.5687
2400.000000	82.311	25.9231
2430.000000	82.198	27.8647
2470.000000	82.049	30.8752
2500.000000	81.942	33.4318
2540.000000	81.791	37.1944
2580.000000	81.640	41.3947
2620.000000	81.504	45.9880
2650.000000	81.414	49.6086
2690.000000	81.308	54.5706
2720.000000	81.236	58.3625
2760.000000	81.150	63.4760
2800.000000	81.074	68.5887
2850.000000	80.983	74.8857
2900.000000	80.887	81.0784
2950.000000	80.785	87.3124
3000.000000	80.677	93.6524
3040.000000	80.580	98.7875
3070.000000	80.501	102.6680
3110.000000	80.388	107.8473
3150.000000	80.265	112.9628
3200.000000	80.096	119.2139
3250.000000	79.922	125.3037
3300.000000	79.751	131.2980
3350.000000	79.596	137.4362
3400.000000	79.476	143.9290
3450.000000	79.391	150.7392
3500.000000	79.341	157.7078
3550.000000	79.326	164.7307
3600.000000	79.344	171.7390
3650.000000	79.385	178.6516
3700.000000	79.436	-174.5972
3750.000000	79.481	-168.0236
3820.000000	79.512	-158.9991
3870.000000	79.515	-152.5469
3950.000000	79.518	-142.0511
4000.000000	79.533	-135.4227
4060.000000	79.568	-127.5522
4120.000000	79.618	-120.0311
4180.000000	79.666	-113.1938
4250.000000	79.694	-106.2100
4310.000000	79.685	-100.8088
4370.000000	79.643	-95.6674
4440.000000	79.540	-89.8308
4500.000000	79.400	-84.8691
4550.000000	79.252	-80.7275
4620.000000	79.007	-74.9199
4680.000000	78.781	-69.9477
4750.000000	78.521	-64.2016
4820.000000	78.285	-58.6390
4870.000000	78.134	-54.8888
4940.000000	77.946	-50.0491
5000.000000	77.810	-46.3076
5080.000000	77.653	-41.9234
5150.000000	77.528	-38.5466
5220.000000	77.407	-35.4092
5300.000000	77.271	-31.9321
5380.000000	77.149	-28.3375
5450.000000	77.074	-24.8540
5520.000000	77.049	-20.9871
5600.000000	77.101	-16.3461
5700.000000	77.295	-10.9553
5800.000000	77.588	-6.8298
5900.000000	77.870	-4.0880
6000.000000	78.059	-1.8671
6080.000000	78.157	0.2134
6150.000000	78.244	2.3548
6220.000000	78.361	4.5668
6300.000000	78.535	6.7915
6400.000000	78.773	8.8198
6500.000000	78.958	10.1085
6600.000000	79.019	10.9295
6700.000000	78.930	11.5703
6800.000000	78.716	12.4056
6900.000000	78.426	13.8170
7000.000000	78.119	16.1138
7100.000000	77.853	19.4484
7200.000000	77.668	23.6873
7300.000000	77.578	28.4303
7400.000000	77.572	33.1983
7500.000000	77.631	37.6721
7620.000000	77.754	42.4836
7750.000000	77.918	47.1239
7880.000000	78.129	51.4255
8000.000000	78.390	54.7424
8120.000000	78.735	57.0094
8250.000000	79.201	58.1451
8380.000000	79.703	57.8119
8500.000000	80.122	56.3198
8620.000000	80.437	54.0813
8750.000000	80.620	51.2238
8850.000000	80.648	48.9196
9000.000000	80.533	45.4473
9120.000000	80.341	42.6630
9250.000000	80.075	39.8364
9380.000000	79.785	37.3750
9500.000000	79.520	35.1826
9620.000000	79.273	32.6954
9750.000000	79.036	29.4940
9880.000000	78.835	25.9909
10000.000000	78.683	22.8823
10150.000000	78.522	19.5356
10300.000000	78.370	16.8799
10440.000000	78.210	14.9375
10600.000000	77.981	13.3085
10750.000000	77.731	12.4686
10900.000000	77.468	12.0762
11060.000000	77.210	11.6810
11200.000000	77.030	11.0962
11380.000000	76.891	10.1221
11500.000000	76.868	9.7933
11720.000000	76.995	10.9503
11800.000000	77.098	11.9390
12060.000000	77.666	16.4416
12200.000000	78.139	19.0063
12410.000000	79.073	21.0657
12500.000000	79.545	20.7219
12650.000000	80.384	17.9687
12800.000000	81.218	12.2666
13150.000000	82.573	-10.8489
13200.000000	82.647	-14.9427
13400.000000	82.569	-32.2530
13600.000000	81.937	-49.5844
13800.000000	80.892	-65.5551
14000.000000	79.593	-79.5847
14300.000000	77.450	-96.2468
14500.000000	76.034	-104.3681
14750.000000	74.369	-112.4002
15000.000000	72.852	-118.8693
15250.000000	71.597	-124.1481
15500.000000	70.835	-129.7245
15750.000000	70.551	-137.7210
16000.000000	70.397	-149.0768
16250.000000	70.120	-162.2676
16500.000000	69.670	-175.3273
16750.000000	69.079	172.5064
17000.000000	68.420	161.3604
17250.000000	67.828	150.6311
17500.000000	67.415	138.7480
17750.000000	67.143	123.8861
18000.000000	66.892	104.9965
18250.000000	66.553	82.3871
18500.000000	66.049	57.5577
18750.000000	65.365	32.1204
19000.000000	64.576	6.5541
19250.000000	63.789	-18.8983
19500.000000	63.056	-43.4224
19750.000000	62.423	-64.9303
20000.000000	62.040	-78.0193
