* Measurement data measured by REW V5.20.13
* Source: Microphone (USB Audio Device), MICROPHONE (Master Volume), R, volume: 0.250
* Format: 256k Log Swept Sine, 1 sweep at -12.0 dBFS with no timing reference
* Dated: 09-Oct-2023 10:31:45
* REW Settings:
*  C-weighting compensation: Off
*  Target level: 75.0 dB
* Note: 
* Measurement: BASN MMCX R
* Smoothing: 1/12 octave
* Frequency Step: 1/48 octave
* Start Frequency: 20.300 Hz
*
* Freq(Hz)	SPL(dB)	Phase(degrees)
20.299999	73.152	-80.4022
20.600000	73.209	-80.9709
20.900000	73.346	-82.1600
21.200001	73.495	-83.4260
21.400000	73.593	-84.2521
21.799999	73.780	-85.8503
22.000000	73.865	-86.6237
22.400000	74.016	-88.1375
22.700001	74.112	-89.2429
23.000000	74.198	-90.3224
23.299999	74.277	-91.3884
23.600000	74.354	-92.4588
24.000000	74.455	-93.9204
24.299999	74.533	-95.0511
24.700001	74.637	-96.5888
25.000000	74.716	-97.7371
25.400000	74.824	-99.2220
25.799999	74.930	-100.6229
26.200001	75.030	-101.9290
26.500000	75.100	-102.8508
26.900000	75.183	-104.0182
27.200001	75.241	-104.8705
27.600000	75.318	-106.0244
28.000000	75.400	-107.2712
28.500000	75.507	-109.0395
29.000000	75.607	-110.9833
29.500000	75.687	-112.8743
30.000000	75.752	-114.4412
30.400000	75.806	-115.3955
30.700001	75.854	-115.9739
31.100000	75.925	-116.6699
31.500000	76.001	-117.3885
32.000000	76.085	-118.4189
32.500000	76.150	-119.5887
33.000000	76.199	-120.8140
33.500000	76.243	-122.0227
34.000000	76.287	-123.1792
34.500000	76.334	-124.2818
35.000000	76.385	-125.3516
35.500000	76.437	-126.4241
36.000000	76.487	-127.5200
36.500000	76.532	-128.6244
37.000000	76.568	-129.6935
37.500000	76.599	-130.6955
38.200001	76.635	-132.0035
38.700001	76.659	-132.9215
39.500000	76.695	-134.4337
40.000000	76.715	-135.3896
40.599998	76.738	-136.5046
41.200001	76.763	-137.5694
41.799999	76.789	-138.6162
42.500000	76.819	-139.8661
43.099998	76.840	-140.9526
43.700001	76.858	-141.9967
44.400002	76.873	-143.1117
45.000000	76.876	-143.9938
45.500000	76.869	-144.7190
46.200001	76.849	-145.7840
46.799999	76.838	-146.7738
47.500000	76.850	-147.9919
48.200001	76.890	-149.1869
48.700001	76.922	-149.9577
49.400002	76.950	-150.8454
50.000000	76.952	-151.4376
50.799999	76.935	-152.1592
51.500000	76.914	-152.8946
52.200001	76.890	-153.7059
53.000000	76.873	-154.5554
53.799999	76.877	-155.2876
54.500000	76.888	-155.9326
55.200001	76.891	-156.6379
56.000000	76.882	-157.5396
57.000000	76.852	-158.8528
58.000000	76.781	-160.2142
59.000000	76.684	-161.3338
60.000000	76.604	-162.2735
60.799999	76.567	-163.0245
61.500000	76.554	-163.6644
62.200001	76.553	-164.2471
63.000000	76.550	-164.8533
64.000000	76.532	-165.6251
65.000000	76.515	-166.5041
66.000000	76.530	-167.4214
67.000000	76.558	-168.2273
68.000000	76.547	-168.9534
69.000000	76.466	-169.7322
70.000000	76.356	-170.5742
71.000000	76.285	-171.4647
72.000000	76.270	-172.3423
73.000000	76.285	-173.0939
74.000000	76.296	-173.7061
75.000000	76.286	-174.2266
76.199997	76.249	-174.7909
77.500000	76.193	-175.3806
78.800003	76.119	-175.9879
80.000000	76.043	-176.6129
81.199997	75.981	-177.3013
82.500000	75.938	-178.0939
83.800003	75.902	-178.8853
85.000000	75.865	-179.5388
86.199997	75.819	179.9048
87.500000	75.758	179.3439
88.500000	75.708	178.9062
90.000000	75.638	178.2510
91.199997	75.588	177.7518
92.500000	75.532	177.2480
93.800003	75.470	176.7722
95.000000	75.409	176.3448
96.199997	75.348	175.9331
97.500000	75.285	175.5187
98.800003	75.226	175.1426
100.000000	75.174	174.8163
101.500000	75.116	174.3962
103.000000	75.063	173.9511
104.400002	75.014	173.5369
106.000000	74.956	173.0500
107.500000	74.903	172.5560
109.000000	74.846	172.0549
110.599998	74.783	171.5530
112.000000	74.729	171.1523
113.800003	74.657	170.6718
115.000000	74.608	170.3580
117.199997	74.516	169.7963
118.000000	74.482	169.6028
120.599998	74.367	169.0201
122.000000	74.307	168.7268
124.099998	74.218	168.3191
125.000000	74.180	168.1545
126.500000	74.118	167.8833
128.000000	74.056	167.6048
131.500000	73.925	166.9280
132.000000	73.907	166.8344
134.000000	73.833	166.4940
136.000000	73.753	166.2563
138.000000	73.665	166.1153
140.000000	73.577	165.9741
143.000000	73.452	165.6950
145.000000	73.373	165.5085
147.500000	73.276	165.3061
150.000000	73.188	165.1224
152.500000	73.108	164.9598
155.000000	73.033	164.8161
157.500000	72.956	164.6783
160.000000	72.879	164.5814
162.500000	72.797	164.4887
165.000000	72.709	164.2971
167.500000	72.613	164.0517
170.000000	72.517	163.8712
172.500000	72.432	163.7860
175.000000	72.350	163.7745
177.500000	72.265	163.8225
180.000000	72.171	163.9059
182.500000	72.068	164.0009
185.000000	71.950	164.0975
187.500000	71.823	164.2018
190.000000	71.698	164.3213
192.500000	71.587	164.4492
195.000000	71.495	164.5857
197.500000	71.417	164.7473
200.000000	71.341	164.9585
203.000000	71.247	165.3031
206.000000	71.160	165.7548
209.000000	71.086	166.3409
212.000000	71.021	167.0642
214.000000	70.983	167.5938
218.000000	70.915	168.7242
220.000000	70.892	169.3381
224.000000	70.889	170.6560
227.000000	70.936	171.6469
230.000000	71.031	172.5169
233.000000	71.168	173.1077
236.000000	71.326	173.2912
240.000000	71.520	172.9258
243.000000	71.623	172.3340
247.000000	71.687	171.3053
250.000000	71.686	170.4551
254.000000	71.642	169.4815
258.000000	71.577	168.9234
262.000000	71.504	168.6399
265.000000	71.444	168.4636
269.000000	71.363	168.2488
272.000000	71.303	168.1379
276.000000	71.227	168.0624
280.000000	71.153	168.0422
285.000000	71.058	168.0797
290.000000	70.965	168.1602
295.000000	70.879	168.2509
300.000000	70.797	168.3804
304.000000	70.734	168.5302
307.000000	70.688	168.6725
311.000000	70.629	168.8990
315.000000	70.569	169.1480
320.000000	70.501	169.4519
325.000000	70.443	169.7506
330.000000	70.392	170.0638
335.000000	70.349	170.3484
340.000000	70.317	170.5538
345.000000	70.287	170.7405
350.000000	70.246	170.9884
355.000000	70.193	171.3087
360.000000	70.138	171.6618
365.000000	70.090	171.9990
370.000000	70.050	172.2935
375.000000	70.016	172.5508
382.000000	69.972	172.9233
387.000000	69.944	173.2214
395.000000	69.902	173.7252
400.000000	69.877	174.0435
406.000000	69.847	174.3955
412.000000	69.815	174.6942
418.000000	69.782	174.9673
425.000000	69.749	175.3268
431.000000	69.727	175.6797
437.000000	69.708	176.0379
444.000000	69.685	176.4398
450.000000	69.665	176.7923
455.000000	69.648	177.0968
462.000000	69.624	177.5340
468.000000	69.605	177.9141
475.000000	69.590	178.3342
482.000000	69.581	178.7336
487.000000	69.573	179.0250
494.000000	69.557	179.4363
500.000000	69.543	179.7674
508.000000	69.521	-179.8113
515.000000	69.500	-179.4193
522.000000	69.480	-178.9919
530.000000	69.463	-178.4930
538.000000	69.453	-178.0031
545.000000	69.449	-177.5734
552.000000	69.446	-177.1495
560.000000	69.448	-176.6759
570.000000	69.453	-176.0780
580.000000	69.458	-175.4559
590.000000	69.456	-174.8158
600.000000	69.454	-174.2055
608.000000	69.460	-173.7506
615.000000	69.469	-173.3671
622.000000	69.478	-172.9822
630.000000	69.491	-172.5151
640.000000	69.510	-171.8766
650.000000	69.533	-171.2095
660.000000	69.558	-170.5600
670.000000	69.586	-169.9625
680.000000	69.616	-169.4206
690.000000	69.651	-168.8844
700.000000	69.688	-168.3274
710.000000	69.721	-167.7684
720.000000	69.749	-167.2371
730.000000	69.778	-166.7242
740.000000	69.812	-166.1939
750.000000	69.853	-165.6411
762.000000	69.906	-164.9784
775.000000	69.963	-164.2671
788.000000	70.027	-163.5347
800.000000	70.094	-162.8483
812.000000	70.167	-162.1956
825.000000	70.246	-161.5597
838.000000	70.320	-160.9374
850.000000	70.387	-160.3586
862.000000	70.458	-159.8199
875.000000	70.542	-159.2636
885.000000	70.609	-158.8209
900.000000	70.713	-158.1263
912.000000	70.802	-157.5511
925.000000	70.905	-156.9252
938.000000	71.014	-156.3358
950.000000	71.121	-155.8445
962.000000	71.233	-155.4002
975.000000	71.356	-154.9640
988.000000	71.483	-154.5661
1000.000000	71.603	-154.2277
1015.000000	71.760	-153.8567
1030.000000	71.923	-153.5614
1044.000000	72.075	-153.3554
1060.000000	72.250	-153.1966
1075.000000	72.413	-153.1046
1090.000000	72.570	-153.0461
1106.000000	72.734	-153.0222
1120.000000	72.879	-153.0475
1138.000000	73.066	-153.1501
1150.000000	73.192	-153.2611
1172.000000	73.421	-153.5546
1180.000000	73.503	-153.6928
1206.000000	73.763	-154.2424
1220.000000	73.902	-154.5921
1241.000000	74.117	-155.1731
1250.000000	74.212	-155.4377
1265.000000	74.375	-155.8880
1280.000000	74.537	-156.3329
1315.000000	74.883	-157.2903
1320.000000	74.924	-157.4219
1340.000000	75.054	-157.9621
1360.000000	75.134	-158.5400
1380.000000	75.177	-159.1524
1400.000000	75.205	-159.7780
1430.000000	75.263	-160.6903
1450.000000	75.326	-161.2912
1475.000000	75.433	-162.0664
1500.000000	75.562	-162.8892
1525.000000	75.699	-163.7643
1550.000000	75.836	-164.6808
1575.000000	75.968	-165.6084
1600.000000	76.095	-166.5407
1625.000000	76.214	-167.5036
1650.000000	76.324	-168.5018
1675.000000	76.428	-169.5338
1700.000000	76.528	-170.6004
1725.000000	76.618	-171.6869
1750.000000	76.695	-172.7884
1775.000000	76.759	-173.9142
1800.000000	76.813	-175.0621
1825.000000	76.854	-176.2151
1850.000000	76.884	-177.3619
1875.000000	76.905	-178.4965
1900.000000	76.918	-179.6158
1925.000000	76.924	179.2803
1950.000000	76.920	178.1949
1975.000000	76.908	177.1339
2000.000000	76.889	176.0951
2030.000000	76.861	174.8666
2060.000000	76.824	173.6624
2090.000000	76.778	172.4931
2120.000000	76.720	171.3590
2140.000000	76.676	170.6279
2180.000000	76.575	169.2473
2200.000000	76.521	168.6024
2240.000000	76.408	167.4007
2270.000000	76.319	166.5712
2300.000000	76.227	165.8012
2330.000000	76.134	165.0803
2360.000000	76.038	164.3965
2400.000000	75.907	163.5400
2430.000000	75.808	162.9438
2470.000000	75.676	162.2208
2500.000000	75.575	161.7390
2540.000000	75.439	161.1667
2580.000000	75.303	160.6550
2620.000000	75.171	160.1787
2650.000000	75.074	159.8361
2690.000000	74.947	159.4114
2720.000000	74.852	159.1284
2760.000000	74.730	158.8069
2800.000000	74.611	158.5445
2850.000000	74.460	158.2615
2900.000000	74.309	157.9969
2950.000000	74.163	157.7614
3000.000000	74.019	157.5748
3040.000000	73.906	157.4579
3070.000000	73.823	157.3892
3110.000000	73.712	157.3238
3150.000000	73.602	157.2780
3200.000000	73.469	157.2380
3250.000000	73.342	157.2337
3300.000000	73.216	157.2775
3350.000000	73.089	157.3582
3400.000000	72.958	157.4568
3450.000000	72.823	157.5786
3500.000000	72.680	157.7442
3550.000000	72.529	157.9706
3600.000000	72.373	158.2639
3650.000000	72.223	158.6000
3700.000000	72.090	158.9602
3750.000000	71.975	159.3545
3820.000000	71.845	159.9935
3870.000000	71.768	160.5070
3950.000000	71.656	161.4281
4000.000000	71.585	162.0755
4060.000000	71.496	162.9221
4120.000000	71.405	163.8314
4180.000000	71.315	164.7869
4250.000000	71.216	165.9651
4310.000000	71.147	167.0136
4370.000000	71.109	168.0663
4440.000000	71.120	169.2341
4500.000000	71.179	170.1030
4550.000000	71.262	170.6877
4620.000000	71.423	171.2198
4680.000000	71.586	171.3040
4750.000000	71.773	170.8182
4820.000000	71.907	169.6804
4870.000000	71.940	168.5694
4940.000000	71.878	166.8762
5000.000000	71.727	165.5921
5080.000000	71.417	164.5305
5150.000000	71.091	164.3682
5220.000000	70.757	164.8779
5300.000000	70.410	166.0848
5380.000000	70.125	167.6989
5450.000000	69.936	169.3051
5520.000000	69.807	171.0092
5600.000000	69.723	172.9828
5700.000000	69.695	175.4016
5800.000000	69.747	177.7243
5900.000000	69.876	179.9003
6000.000000	70.070	-178.1273
6080.000000	70.264	-176.7116
6150.000000	70.459	-175.5724
6220.000000	70.676	-174.5213
6300.000000	70.955	-173.4503
6400.000000	71.351	-172.3707
6500.000000	71.806	-171.6730
6600.000000	72.327	-171.4411
6700.000000	72.915	-171.8053
6800.000000	73.568	-172.9575
6900.000000	74.264	-175.1258
7000.000000	74.965	-178.5577
7100.000000	75.616	176.5427
7200.000000	76.149	170.0856
7300.000000	76.487	162.2059
7400.000000	76.567	153.3989
7500.000000	76.366	144.4762
7620.000000	75.774	134.7883
7750.000000	74.785	126.5671
7880.000000	73.538	121.0121
8000.000000	72.237	118.0630
8120.000000	70.862	116.8944
8250.000000	69.365	117.2111
8380.000000	67.942	118.7428
8500.000000	66.752	120.9538
8620.000000	65.695	123.7397
8750.000000	64.698	127.2820
8850.000000	64.032	130.2776
9000.000000	63.181	134.9899
9120.000000	62.606	138.8528
9250.000000	62.059	143.1546
9380.000000	61.573	147.5693
9500.000000	61.181	151.6370
9620.000000	60.861	155.6531
9750.000000	60.602	159.9805
9880.000000	60.423	164.3242
10000.000000	60.317	168.3169
10150.000000	60.259	173.1383
10300.000000	60.276	177.6588
10440.000000	60.367	-178.4829
10600.000000	60.572	-174.5465
10750.000000	60.847	-171.2495
10900.000000	61.182	-168.3080
11060.000000	61.594	-165.7051
11200.000000	61.988	-164.0490
11380.000000	62.503	-162.9847
11500.000000	62.834	-162.9557
11720.000000	63.386	-164.1514
11800.000000	63.563	-164.9622
12060.000000	64.022	-168.8283
12200.000000	64.171	-171.5615
12410.000000	64.222	-176.3132
12500.000000	64.169	-178.5403
12650.000000	63.963	177.5869
12800.000000	63.581	173.7252
13150.000000	61.869	167.2264
13200.000000	61.532	166.8553
13400.000000	60.015	167.2588
13600.000000	58.385	170.6931
13800.000000	56.888	176.5888
14000.000000	55.725	-175.9523
14300.000000	54.773	-163.5244
14500.000000	54.639	-155.3506
14750.000000	54.875	-145.9834
15000.000000	55.415	-137.7958
15250.000000	56.121	-130.9267
15500.000000	56.885	-125.9216
15750.000000	57.693	-123.2689
16000.000000	58.522	-123.2548
16250.000000	59.275	-125.7981
16500.000000	59.813	-130.2207
16750.000000	60.060	-135.1912
17000.000000	60.052	-139.2472
17250.000000	59.916	-141.5340
17500.000000	59.829	-142.2165
17750.000000	59.951	-142.2638
18000.000000	60.336	-143.0371
18250.000000	60.905	-146.3980
18500.000000	61.489	-155.7532
18750.000000	61.902	-178.2594
19000.000000	61.987	132.4790
19250.000000	61.658	39.7232
19500.000000	60.950	-96.7915
19750.000000	60.051	118.9163
