* Measurement data measured by REW V5.31.3
* Source: Microphone (USB Sound Device        ), MICROPHONE (Master Volume), L, volume: 0.700
* Format: 256k Log Swept Sine, 1 sweep at -12.0 dBFS with no timing reference
* Dated: 31-Jan-2025 16:23:35
* REW Settings:
*  C-weighting compensation: Off
*  Target level: 75.0 dB
* Note: 
* Measurement: CAA2 A L
* Smoothing: 1/12 octave
* Frequency Step: 1/48 octave
* Start Frequency: 20.300 Hz
*
* Freq(Hz)	SPL(dB)	Phase(degrees)
20.299999	91.125	-120.4298
20.600000	91.191	-121.4359
20.900000	91.280	-122.7067
21.200001	91.380	-124.0912
21.400000	91.447	-125.0475
21.799999	91.565	-126.9929
22.000000	91.614	-127.9600
22.400000	91.687	-129.8290
22.700001	91.723	-131.1432
23.000000	91.749	-132.3751
23.299999	91.771	-133.5394
23.600000	91.794	-134.6630
24.000000	91.827	-136.1470
24.299999	91.853	-137.2701
24.700001	91.884	-138.7779
25.000000	91.905	-139.8955
25.400000	91.926	-141.3293
25.799999	91.942	-142.6707
26.200001	91.955	-143.9205
26.500000	91.965	-144.8138
26.900000	91.977	-145.9738
27.200001	91.983	-146.8336
27.600000	91.989	-147.9710
28.000000	91.991	-149.0891
28.500000	91.990	-150.4404
29.000000	91.989	-151.7349
29.500000	91.990	-152.9867
30.000000	91.992	-154.2098
30.400000	91.991	-155.1663
30.700001	91.989	-155.8670
31.100000	91.988	-156.7769
31.500000	91.988	-157.6617
32.000000	91.990	-158.7433
32.500000	91.990	-159.8052
33.000000	91.983	-160.8412
33.500000	91.970	-161.8407
34.000000	91.956	-162.8088
34.500000	91.947	-163.7698
35.000000	91.942	-164.7461
35.500000	91.938	-165.7335
36.000000	91.930	-166.7034
36.500000	91.919	-167.6312
37.000000	91.907	-168.5215
37.500000	91.892	-169.4009
38.200001	91.863	-170.6463
38.700001	91.835	-171.5310
39.500000	91.788	-172.8928
40.000000	91.762	-173.7186
40.599998	91.731	-174.7107
41.200001	91.699	-175.7074
41.799999	91.663	-176.6917
42.500000	91.620	-177.8114
43.099998	91.580	-178.7501
43.700001	91.534	-179.6698
44.400002	91.473	179.2913
45.000000	91.416	178.4426
45.500000	91.368	177.7730
46.200001	91.304	176.8940
46.799999	91.252	176.1770
47.500000	91.191	175.3550
48.200001	91.124	174.5473
48.700001	91.074	173.9883
49.400002	91.002	173.2313
50.000000	90.937	172.5974
50.799999	90.843	171.7763
51.500000	90.754	171.1010
52.200001	90.664	170.4769
53.000000	90.563	169.8242
53.799999	90.463	169.2345
54.500000	90.377	168.7668
55.200001	90.297	168.3321
56.000000	90.213	167.8554
57.000000	90.120	167.2628
58.000000	90.024	166.6832
59.000000	89.922	166.1632
60.000000	89.823	165.7162
60.799999	89.753	165.3915
61.500000	89.699	165.1196
62.200001	89.648	164.8582
63.000000	89.593	164.5753
64.000000	89.527	164.2426
65.000000	89.465	163.9228
66.000000	89.405	163.5996
67.000000	89.347	163.2617
68.000000	89.287	162.9265
69.000000	89.228	162.6232
70.000000	89.169	162.3625
71.000000	89.112	162.1212
72.000000	89.059	161.8646
73.000000	89.008	161.5835
74.000000	88.959	161.2905
75.000000	88.912	161.0022
76.199997	88.861	160.6596
77.500000	88.811	160.2700
78.800003	88.760	159.8720
80.000000	88.708	159.5233
81.199997	88.654	159.2128
82.500000	88.599	158.9238
83.800003	88.545	158.6651
85.000000	88.493	158.4215
86.199997	88.445	158.1547
87.500000	88.398	157.8487
88.500000	88.364	157.6186
90.000000	88.311	157.2844
91.199997	88.266	157.0132
92.500000	88.215	156.7176
93.800003	88.162	156.4169
95.000000	88.114	156.1310
96.199997	88.068	155.8546
97.500000	88.020	155.5925
98.800003	87.976	155.3782
100.000000	87.936	155.2088
101.500000	87.887	154.9933
103.000000	87.838	154.7429
104.400002	87.795	154.4974
106.000000	87.749	154.2494
107.500000	87.708	154.0623
109.000000	87.665	153.8871
110.599998	87.618	153.6728
112.000000	87.577	153.4676
113.800003	87.526	153.2222
115.000000	87.492	153.0839
117.199997	87.432	152.8718
118.000000	87.410	152.8032
120.599998	87.344	152.5854
122.000000	87.311	152.4532
124.099998	87.263	152.2202
125.000000	87.244	152.1095
126.500000	87.212	151.9199
128.000000	87.180	151.7322
131.500000	87.102	151.3214
132.000000	87.091	151.2701
134.000000	87.055	151.0923
136.000000	87.022	150.9384
138.000000	86.991	150.7704
140.000000	86.961	150.5808
143.000000	86.918	150.3024
145.000000	86.891	150.1202
147.500000	86.856	149.8951
150.000000	86.820	149.6832
152.500000	86.786	149.4518
155.000000	86.761	149.1917
157.500000	86.740	148.9149
160.000000	86.715	148.6224
162.500000	86.688	148.3226
165.000000	86.662	148.0212
167.500000	86.636	147.7242
170.000000	86.612	147.4460
172.500000	86.592	147.1811
175.000000	86.573	146.8962
177.500000	86.548	146.5815
180.000000	86.514	146.2575
182.500000	86.465	145.9352
185.000000	86.404	145.6013
187.500000	86.332	145.2607
190.000000	86.258	144.9204
192.500000	86.189	144.5856
195.000000	86.129	144.2723
197.500000	86.079	143.9809
200.000000	86.041	143.7012
203.000000	86.010	143.3705
206.000000	85.989	143.0276
209.000000	85.971	142.6711
212.000000	85.951	142.3363
214.000000	85.934	142.1317
218.000000	85.885	141.7366
220.000000	85.853	141.5458
224.000000	85.780	141.1932
227.000000	85.722	140.9424
230.000000	85.661	140.7088
233.000000	85.599	140.5139
236.000000	85.538	140.3505
240.000000	85.458	140.1493
243.000000	85.401	140.0034
247.000000	85.329	139.7996
250.000000	85.278	139.6472
254.000000	85.214	139.4806
258.000000	85.153	139.3582
262.000000	85.097	139.2288
265.000000	85.059	139.1207
269.000000	85.011	138.9716
272.000000	84.973	138.8596
276.000000	84.924	138.7185
280.000000	84.876	138.5724
285.000000	84.821	138.3743
290.000000	84.762	138.1873
295.000000	84.699	137.9919
300.000000	84.638	137.7969
304.000000	84.593	137.6633
307.000000	84.562	137.5688
311.000000	84.523	137.4372
315.000000	84.483	137.3048
320.000000	84.429	137.1361
325.000000	84.375	136.9579
330.000000	84.326	136.7868
335.000000	84.284	136.6255
340.000000	84.247	136.4456
345.000000	84.210	136.2341
350.000000	84.171	136.0214
355.000000	84.128	135.8294
360.000000	84.079	135.6392
365.000000	84.022	135.4467
370.000000	83.959	135.2614
375.000000	83.895	135.0799
382.000000	83.814	134.8542
387.000000	83.762	134.7344
395.000000	83.684	134.5766
400.000000	83.635	134.4748
406.000000	83.580	134.3473
412.000000	83.530	134.2268
418.000000	83.483	134.1306
425.000000	83.435	134.0204
431.000000	83.399	133.9020
437.000000	83.363	133.7637
444.000000	83.317	133.5505
450.000000	83.275	133.3116
455.000000	83.237	133.0789
462.000000	83.180	132.7561
468.000000	83.122	132.5147
475.000000	83.044	132.2797
482.000000	82.961	132.0820
487.000000	82.903	131.9455
494.000000	82.825	131.7516
500.000000	82.762	131.6002
508.000000	82.677	131.4492
515.000000	82.596	131.3788
522.000000	82.506	131.3649
530.000000	82.401	131.4030
538.000000	82.301	131.4688
545.000000	82.217	131.5303
552.000000	82.135	131.5999
560.000000	82.044	131.7202
570.000000	81.941	131.9247
580.000000	81.854	132.1143
590.000000	81.770	132.2138
600.000000	81.672	132.2424
608.000000	81.577	132.2766
615.000000	81.486	132.3799
622.000000	81.394	132.5845
630.000000	81.294	132.9261
640.000000	81.183	133.4536
650.000000	81.091	134.0754
660.000000	81.017	134.7458
670.000000	80.953	135.3504
680.000000	80.893	135.8840
690.000000	80.837	136.4210
700.000000	80.784	137.0165
710.000000	80.738	137.6302
720.000000	80.703	138.1944
730.000000	80.671	138.7262
740.000000	80.641	139.2832
750.000000	80.609	139.8931
762.000000	80.573	140.6629
775.000000	80.538	141.4598
788.000000	80.511	142.2408
800.000000	80.501	143.0081
812.000000	80.498	143.8170
825.000000	80.502	144.7210
838.000000	80.515	145.6046
850.000000	80.533	146.3547
862.000000	80.559	147.0393
875.000000	80.597	147.7570
885.000000	80.630	148.3070
900.000000	80.682	149.1175
912.000000	80.728	149.7515
925.000000	80.788	150.4140
938.000000	80.855	151.0331
950.000000	80.917	151.5496
962.000000	80.979	152.0252
975.000000	81.045	152.5126
988.000000	81.111	152.9855
1000.000000	81.174	153.3935
1015.000000	81.258	153.8333
1030.000000	81.348	154.1837
1044.000000	81.433	154.4341
1060.000000	81.526	154.6799
1075.000000	81.608	154.9122
1090.000000	81.685	155.1317
1106.000000	81.761	155.3360
1120.000000	81.825	155.4971
1138.000000	81.906	155.6801
1150.000000	81.962	155.7722
1172.000000	82.063	155.8757
1180.000000	82.099	155.8977
1206.000000	82.217	155.9106
1220.000000	82.281	155.8840
1241.000000	82.381	155.8261
1250.000000	82.426	155.7991
1265.000000	82.503	155.7552
1280.000000	82.579	155.7222
1315.000000	82.722	155.7375
1320.000000	82.735	155.7535
1340.000000	82.759	155.8642
1360.000000	82.732	156.0460
1380.000000	82.666	156.2693
1400.000000	82.587	156.5148
1430.000000	82.499	156.9625
1450.000000	82.476	157.3439
1475.000000	82.486	157.8792
1500.000000	82.529	158.4454
1525.000000	82.599	159.0620
1550.000000	82.687	159.7263
1575.000000	82.782	160.4404
1600.000000	82.879	161.1691
1625.000000	82.980	161.8890
1650.000000	83.090	162.6229
1675.000000	83.211	163.3642
1700.000000	83.341	164.1080
1725.000000	83.476	164.8289
1750.000000	83.613	165.5096
1775.000000	83.753	166.1624
1800.000000	83.904	166.8032
1825.000000	84.067	167.4343
1850.000000	84.242	168.0412
1875.000000	84.426	168.6087
1900.000000	84.613	169.1248
1925.000000	84.802	169.5766
1950.000000	84.995	169.9617
1975.000000	85.190	170.2960
2000.000000	85.385	170.5938
2030.000000	85.619	170.8897
2060.000000	85.853	171.0810
2090.000000	86.090	171.1610
2120.000000	86.325	171.1425
2140.000000	86.478	171.0776
2180.000000	86.780	170.8271
2200.000000	86.930	170.6567
2240.000000	87.225	170.2478
2270.000000	87.438	169.8720
2300.000000	87.645	169.4438
2330.000000	87.845	168.9694
2360.000000	88.038	168.4439
2400.000000	88.279	167.6663
2430.000000	88.451	167.0316
2470.000000	88.666	166.1412
2500.000000	88.816	165.4532
2540.000000	89.002	164.5026
2580.000000	89.175	163.5027
2620.000000	89.332	162.4465
2650.000000	89.433	161.6232
2690.000000	89.545	160.4925
2720.000000	89.612	159.6244
2760.000000	89.682	158.4785
2800.000000	89.731	157.3948
2850.000000	89.761	156.1649
2900.000000	89.759	155.0923
2950.000000	89.734	154.1865
3000.000000	89.694	153.4459
3040.000000	89.655	152.9634
3070.000000	89.623	152.6649
3110.000000	89.578	152.3434
3150.000000	89.532	152.1064
3200.000000	89.477	151.9492
3250.000000	89.425	151.9568
3300.000000	89.376	152.1026
3350.000000	89.330	152.3658
3400.000000	89.289	152.7408
3450.000000	89.251	153.2054
3500.000000	89.220	153.7347
3550.000000	89.200	154.3223
3600.000000	89.196	154.9671
3650.000000	89.213	155.6558
3700.000000	89.259	156.3615
3750.000000	89.334	157.0583
3820.000000	89.480	157.9655
3870.000000	89.608	158.5070
3950.000000	89.836	159.0840
4000.000000	89.985	159.2393
4060.000000	90.158	159.1839
4120.000000	90.306	158.8149
4180.000000	90.411	158.1009
4250.000000	90.454	156.8636
4310.000000	90.411	155.5517
4370.000000	90.282	154.1331
4440.000000	90.014	152.5848
4500.000000	89.677	151.7447
4550.000000	89.346	151.7818
4620.000000	88.938	153.3123
4680.000000	88.766	155.1511
4750.000000	88.683	156.2644
4820.000000	88.505	156.5696
4870.000000	88.295	156.9514
4940.000000	87.939	158.1192
5000.000000	87.624	159.6966
5080.000000	87.234	162.4336
5150.000000	86.941	165.2523
5220.000000	86.698	168.3152
5300.000000	86.478	171.9581
5380.000000	86.304	175.6306
5450.000000	86.180	178.8315
5520.000000	86.083	-177.9693
5600.000000	86.006	-174.2952
5700.000000	85.960	-169.6864
5800.000000	85.964	-165.1354
5900.000000	86.007	-160.6494
6000.000000	86.078	-156.1746
6080.000000	86.148	-152.5288
6150.000000	86.218	-149.2345
6220.000000	86.302	-145.8226
6300.000000	86.427	-141.7866
6400.000000	86.646	-136.5909
6500.000000	86.959	-131.3249
6600.000000	87.391	-126.1557
6700.000000	87.961	-121.3379
6800.000000	88.675	-117.1835
6900.000000	89.519	-114.0420
7000.000000	90.452	-112.2736
7100.000000	91.418	-112.1938
7200.000000	92.337	-113.9889
7300.000000	93.109	-117.6062
7400.000000	93.636	-122.6952
7500.000000	93.855	-128.6248
7620.000000	93.684	-135.7384
7750.000000	93.013	-142.1223
7880.000000	91.950	-146.2403
8000.000000	90.736	-147.8177
8120.000000	89.394	-147.4007
8250.000000	87.878	-145.0087
8380.000000	86.376	-140.9290
8500.000000	85.058	-135.9147
8620.000000	83.838	-129.8895
8750.000000	82.644	-122.3690
8850.000000	81.817	-115.9748
9000.000000	80.718	-105.5745
9120.000000	79.953	-96.7225
9250.000000	79.236	-86.7876
9380.000000	78.628	-76.6372
9500.000000	78.163	-67.1772
9620.000000	77.789	-57.7173
9750.000000	77.480	-47.5511
9880.000000	77.254	-37.5225
10000.000000	77.104	-28.4109
10150.000000	76.985	-17.2352
10300.000000	76.921	-6.2954
10440.000000	76.895	3.7381
10600.000000	76.891	15.0616
10750.000000	76.915	25.5650
10900.000000	76.967	35.9596
11060.000000	77.045	47.0256
11200.000000	77.130	56.8793
11380.000000	77.281	69.9509
11500.000000	77.427	78.9511
11720.000000	77.859	96.0173
11800.000000	78.085	102.3482
12060.000000	79.110	123.0472
12200.000000	79.872	134.0233
12410.000000	81.318	149.4347
12500.000000	82.041	155.2740
12650.000000	83.339	163.3824
12800.000000	84.666	168.9029
13150.000000	87.097	170.3772
13200.000000	87.290	169.4816
13400.000000	87.527	164.5216
13600.000000	86.883	159.8034
13800.000000	85.529	158.1933
14000.000000	83.781	161.4539
14300.000000	81.154	176.2388
14500.000000	79.787	-168.9064
14750.000000	78.657	-148.4795
15000.000000	77.977	-128.2084
15250.000000	77.528	-108.0143
15500.000000	77.217	-87.9243
15750.000000	77.017	-68.8703
16000.000000	76.899	-50.2568
16250.000000	77.027	-29.5470
16500.000000	77.611	-8.8074
16750.000000	78.500	8.9275
17000.000000	79.448	23.2818
17250.000000	80.262	34.6647
17500.000000	80.802	43.7997
17750.000000	80.991	51.7677
18000.000000	80.829	59.8218
18250.000000	80.381	69.1000
18500.000000	79.743	80.1439
18750.000000	78.983	92.4905
19000.000000	78.061	105.4265
19250.000000	76.905	119.8680
19500.000000	75.579	137.5839
19750.000000	74.337	157.4702
20000.000000	73.590	171.2142
