* Measurement data measured by REW V5.31.3
* Source: Microphone (USB Sound Device        ), MICROPHONE (Master Volume), L, volume: 0.700
* Format: 256k Log Swept Sine, 1 sweep at -12.0 dBFS with no timing reference
* Dated: 31-Jan-2025 16:26:02
* REW Settings:
*  C-weighting compensation: Off
*  Target level: 75.0 dB
* Note: 
* Measurement: CAA2 R
* Smoothing: 1/12 octave
* Frequency Step: 1/48 octave
* Start Frequency: 20.300 Hz
*
* Freq(Hz)	SPL(dB)	Phase(degrees)
20.299999	90.663	-126.8747
20.600000	90.722	-128.0702
20.900000	90.789	-129.5381
21.200001	90.852	-131.0595
21.400000	90.889	-132.0581
21.799999	90.952	-133.9790
22.000000	90.980	-134.8975
22.400000	91.030	-136.6582
22.700001	91.066	-137.9261
23.000000	91.101	-139.1663
23.299999	91.135	-140.3950
23.600000	91.169	-141.6248
24.000000	91.207	-143.2745
24.299999	91.228	-144.5124
24.700001	91.245	-146.1379
25.000000	91.251	-147.3175
25.400000	91.252	-148.8152
25.799999	91.248	-150.2231
26.200001	91.242	-151.5575
26.500000	91.237	-152.5257
26.900000	91.228	-153.7906
27.200001	91.219	-154.7249
27.600000	91.205	-155.9501
28.000000	91.189	-157.1449
28.500000	91.169	-158.5862
29.000000	91.150	-159.9690
29.500000	91.134	-161.3051
30.000000	91.118	-162.6126
30.400000	91.103	-163.6471
30.700001	91.090	-164.4163
31.100000	91.069	-165.4258
31.500000	91.047	-166.4046
32.000000	91.020	-167.5681
32.500000	90.997	-168.6645
33.000000	90.977	-169.7134
33.500000	90.954	-170.7370
34.000000	90.925	-171.7437
34.500000	90.890	-172.7343
35.000000	90.852	-173.7159
35.500000	90.817	-174.7022
36.000000	90.785	-175.6990
36.500000	90.757	-176.6968
37.000000	90.729	-177.6819
37.500000	90.699	-178.6486
38.200001	90.645	-179.9663
38.700001	90.598	179.1395
39.500000	90.516	177.8487
40.000000	90.469	177.1205
40.599998	90.418	176.2652
41.200001	90.363	175.3857
41.799999	90.296	174.4953
42.500000	90.205	173.4843
43.099998	90.128	172.6244
43.700001	90.056	171.7293
44.400002	89.973	170.6438
45.000000	89.901	169.7266
45.500000	89.843	168.9937
46.200001	89.760	168.0164
46.799999	89.687	167.2303
47.500000	89.598	166.3986
48.200001	89.512	165.6524
48.700001	89.452	165.1481
49.400002	89.365	164.4662
50.000000	89.281	163.9117
50.799999	89.157	163.2113
51.500000	89.047	162.6116
52.200001	88.941	162.0314
53.000000	88.835	161.4297
53.799999	88.742	160.8924
54.500000	88.660	160.4546
55.200001	88.568	160.0470
56.000000	88.453	159.6268
57.000000	88.311	159.1542
58.000000	88.181	158.6797
59.000000	88.053	158.1759
60.000000	87.919	157.7318
60.799999	87.823	157.4603
61.500000	87.753	157.2714
62.200001	87.694	157.1353
63.000000	87.633	157.0746
64.000000	87.557	157.1300
65.000000	87.477	157.2094
66.000000	87.399	157.1934
67.000000	87.335	157.0650
68.000000	87.285	156.8653
69.000000	87.240	156.6215
70.000000	87.191	156.3356
71.000000	87.142	156.0186
72.000000	87.096	155.7014
73.000000	87.049	155.4084
74.000000	86.998	155.1547
75.000000	86.942	154.9504
76.199997	86.880	154.7597
77.500000	86.822	154.5447
78.800003	86.762	154.2668
80.000000	86.706	154.0141
81.199997	86.653	153.7774
82.500000	86.591	153.5810
83.800003	86.542	153.4442
85.000000	86.506	153.2948
86.199997	86.458	153.1414
87.500000	86.396	152.9915
88.500000	86.350	152.8511
90.000000	86.288	152.5665
91.199997	86.242	152.2803
92.500000	86.194	151.9425
93.800003	86.149	151.6212
95.000000	86.110	151.3754
96.199997	86.068	151.2072
97.500000	86.022	151.1035
98.800003	85.981	151.0259
100.000000	85.945	150.9272
101.500000	85.890	150.7402
103.000000	85.833	150.4855
104.400002	85.791	150.2379
106.000000	85.751	150.0104
107.500000	85.708	149.8541
109.000000	85.660	149.7326
110.599998	85.610	149.6240
112.000000	85.569	149.5188
113.800003	85.519	149.3409
115.000000	85.484	149.2090
117.199997	85.418	148.9630
118.000000	85.395	148.8803
120.599998	85.330	148.6984
122.000000	85.301	148.6374
124.099998	85.265	148.5007
125.000000	85.251	148.4107
126.500000	85.226	148.2292
128.000000	85.196	148.0450
131.500000	85.100	147.6869
132.000000	85.082	147.6379
134.000000	85.009	147.4684
136.000000	84.932	147.3929
138.000000	84.852	147.4193
140.000000	84.775	147.5160
143.000000	84.695	147.8422
145.000000	84.678	148.1558
147.500000	84.694	148.4592
150.000000	84.733	148.5894
152.500000	84.773	148.5376
155.000000	84.804	148.2916
157.500000	84.825	147.9472
160.000000	84.834	147.5933
162.500000	84.835	147.2696
165.000000	84.831	146.9802
167.500000	84.823	146.7257
170.000000	84.819	146.5037
172.500000	84.821	146.2671
175.000000	84.823	145.9583
177.500000	84.817	145.5838
180.000000	84.799	145.2000
182.500000	84.767	144.8219
185.000000	84.718	144.4462
187.500000	84.657	144.0816
190.000000	84.595	143.7318
192.500000	84.538	143.3884
195.000000	84.490	143.0472
197.500000	84.452	142.7069
200.000000	84.423	142.3790
203.000000	84.397	142.0351
206.000000	84.381	141.7651
209.000000	84.376	141.5504
212.000000	84.379	141.3363
214.000000	84.379	141.1602
218.000000	84.367	140.7069
220.000000	84.356	140.4539
224.000000	84.335	139.9514
227.000000	84.316	139.6054
230.000000	84.285	139.3005
233.000000	84.245	139.0101
236.000000	84.198	138.7109
240.000000	84.130	138.2766
243.000000	84.085	137.9501
247.000000	84.029	137.5479
250.000000	83.987	137.2723
254.000000	83.927	136.9199
258.000000	83.862	136.5679
262.000000	83.800	136.2271
265.000000	83.760	136.0096
269.000000	83.709	135.7879
272.000000	83.669	135.6612
276.000000	83.614	135.5177
280.000000	83.566	135.3775
285.000000	83.518	135.1729
290.000000	83.477	134.9251
295.000000	83.436	134.6282
300.000000	83.390	134.3198
304.000000	83.348	134.0952
307.000000	83.314	133.9279
311.000000	83.270	133.6897
315.000000	83.229	133.4499
320.000000	83.178	133.1951
325.000000	83.124	132.9825
330.000000	83.073	132.7688
335.000000	83.025	132.5360
340.000000	82.981	132.3008
345.000000	82.941	132.0824
350.000000	82.900	131.8603
355.000000	82.852	131.6678
360.000000	82.801	131.5322
365.000000	82.754	131.4132
370.000000	82.713	131.2519
375.000000	82.673	131.0376
382.000000	82.616	130.7293
387.000000	82.579	130.5297
395.000000	82.520	130.2772
400.000000	82.475	130.1470
406.000000	82.417	130.0015
412.000000	82.362	129.8710
418.000000	82.313	129.7783
425.000000	82.260	129.7057
431.000000	82.218	129.6368
437.000000	82.175	129.5498
444.000000	82.128	129.4116
450.000000	82.092	129.2742
455.000000	82.064	129.1572
462.000000	82.026	128.9985
468.000000	81.994	128.8608
475.000000	81.961	128.6840
482.000000	81.928	128.5133
487.000000	81.903	128.4253
494.000000	81.862	128.3415
500.000000	81.825	128.2673
508.000000	81.779	128.1504
515.000000	81.743	128.0640
522.000000	81.703	128.0167
530.000000	81.653	127.9753
538.000000	81.606	127.9099
545.000000	81.573	127.8672
552.000000	81.543	127.8625
560.000000	81.515	127.8983
570.000000	81.484	127.9673
580.000000	81.453	128.0056
590.000000	81.426	127.9630
600.000000	81.399	127.8367
608.000000	81.369	127.7042
615.000000	81.334	127.5854
622.000000	81.294	127.4964
630.000000	81.248	127.4516
640.000000	81.194	127.4835
650.000000	81.144	127.5992
660.000000	81.107	127.7632
670.000000	81.075	127.9591
680.000000	81.044	128.1733
690.000000	81.016	128.3744
700.000000	80.992	128.5146
710.000000	80.973	128.6215
720.000000	80.952	128.7455
730.000000	80.930	128.8999
740.000000	80.904	129.0905
750.000000	80.873	129.3205
762.000000	80.841	129.6022
775.000000	80.818	129.8973
788.000000	80.803	130.2301
800.000000	80.794	130.6134
812.000000	80.792	131.0397
825.000000	80.800	131.5025
838.000000	80.819	131.9513
850.000000	80.847	132.3238
862.000000	80.884	132.6433
875.000000	80.928	132.9489
885.000000	80.960	133.1624
900.000000	81.001	133.4153
912.000000	81.033	133.5571
925.000000	81.075	133.6875
938.000000	81.120	133.8376
950.000000	81.158	134.0076
962.000000	81.193	134.1877
975.000000	81.231	134.3724
988.000000	81.274	134.5400
1000.000000	81.319	134.6860
1015.000000	81.376	134.8389
1030.000000	81.429	134.9333
1044.000000	81.476	134.9748
1060.000000	81.528	134.9860
1075.000000	81.574	134.9880
1090.000000	81.619	135.0155
1106.000000	81.671	135.0734
1120.000000	81.719	135.1274
1138.000000	81.781	135.1816
1150.000000	81.820	135.2021
1172.000000	81.889	135.2164
1180.000000	81.916	135.2149
1206.000000	82.016	135.2268
1220.000000	82.080	135.2490
1241.000000	82.190	135.2667
1250.000000	82.244	135.2686
1265.000000	82.339	135.2650
1280.000000	82.437	135.2455
1315.000000	82.632	135.1631
1320.000000	82.651	135.1546
1340.000000	82.694	135.1343
1360.000000	82.686	135.1469
1380.000000	82.642	135.2218
1400.000000	82.587	135.3699
1430.000000	82.535	135.6960
1450.000000	82.540	135.9436
1475.000000	82.589	136.2428
1500.000000	82.670	136.5141
1525.000000	82.763	136.7761
1550.000000	82.855	137.0380
1575.000000	82.944	137.3116
1600.000000	83.033	137.6172
1625.000000	83.121	137.9761
1650.000000	83.213	138.4006
1675.000000	83.315	138.8692
1700.000000	83.427	139.3255
1725.000000	83.546	139.7720
1750.000000	83.669	140.2296
1775.000000	83.801	140.6671
1800.000000	83.945	141.0508
1825.000000	84.097	141.3824
1850.000000	84.255	141.6686
1875.000000	84.414	141.9165
1900.000000	84.575	142.1273
1925.000000	84.739	142.2992
1950.000000	84.906	142.4276
1975.000000	85.074	142.5012
2000.000000	85.241	142.5167
2030.000000	85.439	142.4705
2060.000000	85.637	142.3533
2090.000000	85.836	142.1662
2120.000000	86.036	141.9223
2140.000000	86.169	141.7357
2180.000000	86.429	141.3130
2200.000000	86.555	141.0684
2240.000000	86.804	140.4905
2270.000000	86.988	139.9937
2300.000000	87.172	139.4644
2330.000000	87.350	138.9007
2360.000000	87.519	138.2844
2400.000000	87.729	137.3843
2430.000000	87.877	136.6690
2470.000000	88.062	135.6733
2500.000000	88.192	134.8913
2540.000000	88.348	133.7889
2580.000000	88.485	132.6257
2620.000000	88.602	131.4382
2650.000000	88.676	130.5486
2690.000000	88.755	129.3722
2720.000000	88.798	128.5100
2760.000000	88.834	127.4257
2800.000000	88.847	126.4413
2850.000000	88.839	125.3571
2900.000000	88.814	124.4803
2950.000000	88.782	123.8263
3000.000000	88.747	123.3503
3040.000000	88.719	123.1081
3070.000000	88.703	123.0059
3110.000000	88.688	122.9371
3150.000000	88.684	122.8927
3200.000000	88.689	122.8439
3250.000000	88.698	122.8312
3300.000000	88.705	122.8705
3350.000000	88.708	122.9671
3400.000000	88.704	123.1382
3450.000000	88.695	123.3875
3500.000000	88.685	123.7157
3550.000000	88.681	124.1227
3600.000000	88.687	124.5916
3650.000000	88.710	125.1013
3700.000000	88.756	125.6309
3750.000000	88.829	126.1625
3820.000000	88.971	126.8792
3870.000000	89.095	127.3389
3950.000000	89.313	127.8620
4000.000000	89.452	128.0059
4060.000000	89.611	127.9575
4120.000000	89.747	127.6320
4180.000000	89.838	127.0268
4250.000000	89.870	126.0550
4310.000000	89.827	125.0896
4370.000000	89.715	124.0659
4440.000000	89.487	122.9517
4500.000000	89.201	122.3912
4550.000000	88.913	122.5549
4620.000000	88.544	124.2217
4680.000000	88.398	126.4332
4750.000000	88.387	128.1169
4820.000000	88.319	128.7094
4870.000000	88.187	129.1219
4940.000000	87.937	130.1771
5000.000000	87.706	131.5771
5080.000000	87.412	134.0221
5150.000000	87.183	136.5495
5220.000000	86.983	139.3038
5300.000000	86.791	142.6080
5380.000000	86.630	145.9932
5450.000000	86.510	148.9908
5520.000000	86.409	152.0287
5600.000000	86.320	155.5641
5700.000000	86.243	160.0819
5800.000000	86.199	164.7015
5900.000000	86.187	169.4243
6000.000000	86.203	174.2888
6080.000000	86.235	178.2946
6150.000000	86.277	-178.1017
6220.000000	86.337	-174.3934
6300.000000	86.433	-170.0251
6400.000000	86.614	-164.3947
6500.000000	86.888	-158.6699
6600.000000	87.277	-153.0273
6700.000000	87.796	-147.6891
6800.000000	88.447	-142.9095
6900.000000	89.217	-139.0005
7000.000000	90.079	-136.3024
7100.000000	90.991	-135.1152
7200.000000	91.887	-135.6423
7300.000000	92.681	-137.9262
7400.000000	93.284	-141.7467
7500.000000	93.625	-146.6051
7620.000000	93.636	-152.8514
7750.000000	93.163	-158.8783
7880.000000	92.261	-163.0947
8000.000000	91.146	-164.9389
8120.000000	89.856	-164.7809
8250.000000	88.361	-162.5553
8380.000000	86.856	-158.4954
8500.000000	85.526	-153.3868
8620.000000	84.288	-147.1864
8750.000000	83.069	-139.4300
8850.000000	82.218	-132.8276
9000.000000	81.079	-122.0532
9120.000000	80.281	-112.8415
9250.000000	79.527	-102.4301
9380.000000	78.882	-91.7106
9500.000000	78.385	-81.6854
9620.000000	77.979	-71.6428
9750.000000	77.636	-60.8096
9880.000000	77.381	-50.0943
10000.000000	77.210	-40.3689
10150.000000	77.062	-28.4739
10300.000000	76.959	-16.8570
10440.000000	76.879	-6.2005
10600.000000	76.801	5.8902
10750.000000	76.747	17.2367
10900.000000	76.721	28.6171
11060.000000	76.725	40.8375
11200.000000	76.755	51.6797
11380.000000	76.834	65.9439
11500.000000	76.924	75.7014
11720.000000	77.214	94.1344
11800.000000	77.372	100.9830
12060.000000	78.110	123.6214
12200.000000	78.671	135.9911
12410.000000	79.774	154.3681
12500.000000	80.346	161.9330
12650.000000	81.415	173.6538
12800.000000	82.587	-176.3282
13150.000000	85.219	-162.8969
13200.000000	85.521	-162.2124
13400.000000	86.390	-162.0217
13600.000000	86.566	-164.2486
13800.000000	85.995	-166.1195
14000.000000	84.812	-164.9842
14300.000000	82.497	-154.2160
14500.000000	81.038	-140.9625
14750.000000	79.634	-120.3990
15000.000000	78.661	-98.3090
15250.000000	77.956	-75.5733
15500.000000	77.421	-52.6654
15750.000000	77.016	-30.7614
16000.000000	76.691	-9.2556
16250.000000	76.598	15.2029
16500.000000	76.989	40.6810
16750.000000	77.764	63.5563
17000.000000	78.716	83.3443
17250.000000	79.674	100.1495
17500.000000	80.498	114.0867
17750.000000	81.074	125.6768
18000.000000	81.335	135.8886
18250.000000	81.270	145.8765
18500.000000	80.916	156.4921
18750.000000	80.307	167.8386
19000.000000	79.416	179.7640
19250.000000	78.198	-166.6021
19500.000000	76.739	-149.4012
19750.000000	75.318	-129.3444
20000.000000	74.426	-114.8517
