* Measurement data measured by REW V5.31.3
* Source: Microphone (6- USB Sound Device        ), MICROPHONE (Master Volume), L, volume: 0.700
* Format: 256k Log Swept Sine, 1 sweep at -12.0 dBFS with no timing reference
* Dated: 06-Jun-2025 10:16:06
* REW Settings:
*  C-weighting compensation: Off
*  Target level: 75.0 dB
* Note: 
* Measurement: Cap3 Pro Plus L
* Smoothing: 1/12 octave
* Frequency Step: 1/48 octave
* Start Frequency: 20.300 Hz
*
* Freq(Hz)	SPL(dB)	Phase(degrees)
20.299999	85.557	170.0573
20.600000	85.579	170.7290
20.900000	85.612	171.5455
21.200001	85.657	172.3733
21.400000	85.692	172.9017
21.799999	85.774	173.8734
22.000000	85.821	174.3127
22.400000	85.924	175.1003
22.700001	86.007	175.6177
23.000000	86.093	176.0804
23.299999	86.182	176.4958
23.600000	86.272	176.8703
24.000000	86.394	177.3116
24.299999	86.486	177.5974
24.700001	86.613	177.9073
25.000000	86.709	178.0765
25.400000	86.839	178.2069
25.799999	86.965	178.2301
26.200001	87.084	178.1631
26.500000	87.167	178.0696
26.900000	87.271	177.9070
27.200001	87.344	177.7658
27.600000	87.437	177.5578
28.000000	87.529	177.3285
28.500000	87.640	177.0121
29.000000	87.749	176.6595
29.500000	87.855	176.2575
30.000000	87.955	175.7878
30.400000	88.026	175.3614
30.700001	88.073	175.0204
31.100000	88.125	174.5562
31.500000	88.170	174.1011
32.000000	88.222	173.5583
32.500000	88.274	173.0269
33.000000	88.326	172.4743
33.500000	88.371	171.8907
34.000000	88.407	171.2973
34.500000	88.435	170.7202
35.000000	88.460	170.1617
35.500000	88.485	169.6023
36.000000	88.510	169.0284
36.500000	88.531	168.4500
37.000000	88.546	167.8906
37.500000	88.557	167.3627
38.200001	88.568	166.6566
38.700001	88.572	166.1505
39.500000	88.574	165.3186
40.000000	88.570	164.7919
40.599998	88.560	164.1671
41.200001	88.545	163.5646
41.799999	88.526	162.9921
42.500000	88.506	162.3486
43.099998	88.490	161.7995
43.700001	88.472	161.2533
44.400002	88.448	160.6413
45.000000	88.427	160.1478
45.500000	88.408	159.7527
46.200001	88.378	159.2119
46.799999	88.351	158.7559
47.500000	88.320	158.2308
48.200001	88.292	157.7096
48.700001	88.273	157.3426
49.400002	88.248	156.8505
50.000000	88.222	156.4625
50.799999	88.183	155.9939
51.500000	88.146	155.6058
52.200001	88.111	155.2169
53.000000	88.074	154.7776
53.799999	88.043	154.3561
54.500000	88.021	153.9864
55.200001	88.003	153.5956
56.000000	87.981	153.1204
57.000000	87.955	152.4847
58.000000	87.931	151.7993
59.000000	87.904	151.0942
60.000000	87.874	150.3845
60.799999	87.849	149.8081
61.500000	87.824	149.2984
62.200001	87.796	148.7837
63.000000	87.761	148.1869
64.000000	87.710	147.4396
65.000000	87.653	146.7313
66.000000	87.591	146.0853
67.000000	87.523	145.4695
68.000000	87.447	144.8470
69.000000	87.361	144.2206
70.000000	87.272	143.6113
71.000000	87.189	143.0081
72.000000	87.113	142.3940
73.000000	87.037	141.8040
74.000000	86.959	141.2828
75.000000	86.881	140.8203
76.199997	86.784	140.2923
77.500000	86.675	139.7270
78.800003	86.565	139.1720
80.000000	86.469	138.6731
81.199997	86.378	138.1794
82.500000	86.282	137.6673
83.800003	86.183	137.2265
85.000000	86.090	136.8677
86.199997	85.996	136.5087
87.500000	85.897	136.0979
88.500000	85.824	135.7657
90.000000	85.713	135.2582
91.199997	85.623	134.8594
92.500000	85.527	134.4278
93.800003	85.434	133.9919
95.000000	85.348	133.6094
96.199997	85.259	133.2575
97.500000	85.163	132.9126
98.800003	85.066	132.6089
100.000000	84.975	132.3498
101.500000	84.860	132.0141
103.000000	84.743	131.6475
104.400002	84.632	131.2803
106.000000	84.503	130.8594
107.500000	84.381	130.4967
109.000000	84.262	130.1595
110.599998	84.134	129.8016
112.000000	84.020	129.4735
113.800003	83.873	129.0342
115.000000	83.775	128.7474
117.199997	83.595	128.2794
118.000000	83.530	128.1253
120.599998	83.315	127.6446
122.000000	83.200	127.4061
124.099998	83.033	127.0657
125.000000	82.960	126.9274
126.500000	82.835	126.7192
128.000000	82.707	126.5508
131.500000	82.412	126.3055
132.000000	82.372	126.2798
134.000000	82.211	126.1815
136.000000	82.051	126.0639
138.000000	81.890	125.9270
140.000000	81.722	125.8173
143.000000	81.466	125.7837
145.000000	81.302	125.8153
147.500000	81.097	125.9212
150.000000	80.890	126.1195
152.500000	80.687	126.3048
155.000000	80.487	126.4351
157.500000	80.288	126.6248
160.000000	80.094	126.9064
162.500000	79.906	127.2709
165.000000	79.722	127.7039
167.500000	79.538	128.1326
170.000000	79.359	128.5644
172.500000	79.183	129.0436
175.000000	79.014	129.5536
177.500000	78.849	130.0917
180.000000	78.682	130.7110
182.500000	78.513	131.4190
185.000000	78.341	132.1648
187.500000	78.166	132.9308
190.000000	77.991	133.7027
192.500000	77.823	134.4714
195.000000	77.668	135.2576
197.500000	77.531	136.0718
200.000000	77.410	136.9119
203.000000	77.287	137.9408
206.000000	77.186	138.9690
209.000000	77.100	140.0126
212.000000	77.021	141.0724
214.000000	76.972	141.7788
218.000000	76.878	143.1618
220.000000	76.832	143.8465
224.000000	76.744	145.2737
227.000000	76.690	146.4219
230.000000	76.650	147.6360
233.000000	76.619	148.8597
236.000000	76.595	150.0220
240.000000	76.568	151.3650
243.000000	76.548	152.2083
247.000000	76.529	153.2397
250.000000	76.532	154.0095
254.000000	76.551	155.0801
258.000000	76.570	156.1883
262.000000	76.588	157.2851
265.000000	76.604	158.0752
269.000000	76.625	159.0407
272.000000	76.644	159.6869
276.000000	76.678	160.4669
280.000000	76.716	161.1962
285.000000	76.761	162.0648
290.000000	76.806	162.9207
295.000000	76.858	163.7765
300.000000	76.916	164.5980
304.000000	76.964	165.2085
307.000000	77.001	165.6402
311.000000	77.054	166.1827
315.000000	77.111	166.6844
320.000000	77.181	167.2374
325.000000	77.248	167.7062
330.000000	77.315	168.1443
335.000000	77.385	168.5860
340.000000	77.457	168.9860
345.000000	77.525	169.3068
350.000000	77.581	169.5639
355.000000	77.625	169.8090
360.000000	77.668	170.0735
365.000000	77.718	170.3351
370.000000	77.772	170.5405
375.000000	77.826	170.6525
382.000000	77.894	170.6571
387.000000	77.937	170.6180
395.000000	77.997	170.6045
400.000000	78.031	170.6335
406.000000	78.070	170.6756
412.000000	78.108	170.6547
418.000000	78.147	170.5667
425.000000	78.185	170.4545
431.000000	78.197	170.3792
437.000000	78.191	170.3451
444.000000	78.177	170.3128
450.000000	78.166	170.2530
455.000000	78.155	170.2212
462.000000	78.137	170.2457
468.000000	78.122	170.2900
475.000000	78.107	170.3505
482.000000	78.085	170.4580
487.000000	78.067	170.5603
494.000000	78.038	170.7134
500.000000	78.016	170.8469
508.000000	77.996	171.0274
515.000000	77.981	171.1900
522.000000	77.961	171.3780
530.000000	77.932	171.6129
538.000000	77.902	171.8679
545.000000	77.875	172.1322
552.000000	77.850	172.4343
560.000000	77.828	172.8218
570.000000	77.804	173.3434
580.000000	77.782	173.9045
590.000000	77.764	174.5026
600.000000	77.748	175.0739
608.000000	77.737	175.5209
615.000000	77.729	175.9447
622.000000	77.726	176.3977
630.000000	77.729	176.9155
640.000000	77.740	177.5408
650.000000	77.761	178.1652
660.000000	77.790	178.8226
670.000000	77.828	179.5114
680.000000	77.874	-179.7980
690.000000	77.929	-179.1443
700.000000	77.993	-178.5502
710.000000	78.056	-178.0399
720.000000	78.116	-177.5966
730.000000	78.177	-177.1873
740.000000	78.242	-176.8152
750.000000	78.309	-176.4517
762.000000	78.385	-176.0018
775.000000	78.461	-175.4991
788.000000	78.538	-175.0520
800.000000	78.611	-174.6833
812.000000	78.685	-174.2815
825.000000	78.767	-173.7944
838.000000	78.854	-173.2990
850.000000	78.939	-172.9156
862.000000	79.026	-172.6310
875.000000	79.122	-172.3882
885.000000	79.195	-172.2262
900.000000	79.303	-172.0027
912.000000	79.388	-171.8329
925.000000	79.475	-171.6542
938.000000	79.556	-171.4742
950.000000	79.627	-171.2997
962.000000	79.696	-171.1277
975.000000	79.773	-170.9834
988.000000	79.860	-170.8889
1000.000000	79.948	-170.8162
1015.000000	80.058	-170.7314
1030.000000	80.161	-170.6839
1044.000000	80.255	-170.6823
1060.000000	80.364	-170.7155
1075.000000	80.462	-170.7846
1090.000000	80.554	-170.8697
1106.000000	80.644	-170.9734
1120.000000	80.717	-171.1071
1138.000000	80.809	-171.3450
1150.000000	80.873	-171.5190
1172.000000	80.991	-171.7884
1180.000000	81.033	-171.8662
1206.000000	81.167	-172.1054
1220.000000	81.244	-172.2355
1241.000000	81.368	-172.4249
1250.000000	81.424	-172.5136
1265.000000	81.520	-172.6729
1280.000000	81.618	-172.8246
1315.000000	81.819	-173.0557
1320.000000	81.841	-173.0770
1340.000000	81.903	-173.1382
1360.000000	81.919	-173.1580
1380.000000	81.900	-173.1313
1400.000000	81.870	-173.0646
1430.000000	81.854	-172.9408
1450.000000	81.879	-172.8759
1475.000000	81.942	-172.8021
1500.000000	82.031	-172.6656
1525.000000	82.145	-172.5103
1550.000000	82.276	-172.4071
1575.000000	82.406	-172.3169
1600.000000	82.538	-172.1840
1625.000000	82.675	-172.0127
1650.000000	82.815	-171.8147
1675.000000	82.953	-171.6094
1700.000000	83.100	-171.4372
1725.000000	83.263	-171.2859
1750.000000	83.437	-171.1567
1775.000000	83.618	-171.0984
1800.000000	83.806	-171.1619
1825.000000	83.996	-171.3272
1850.000000	84.184	-171.5750
1875.000000	84.367	-171.8960
1900.000000	84.543	-172.2641
1925.000000	84.713	-172.6608
1950.000000	84.877	-173.0911
1975.000000	85.036	-173.5438
2000.000000	85.190	-173.9999
2030.000000	85.368	-174.5459
2060.000000	85.544	-175.0939
2090.000000	85.720	-175.6598
2120.000000	85.898	-176.2505
2140.000000	86.015	-176.6702
2180.000000	86.247	-177.6017
2200.000000	86.360	-178.1080
2240.000000	86.582	-179.1149
2270.000000	86.751	-179.8763
2300.000000	86.926	179.3169
2330.000000	87.102	178.4689
2360.000000	87.271	177.5800
2400.000000	87.481	176.3474
2430.000000	87.630	175.3931
2470.000000	87.824	174.0577
2500.000000	87.965	173.0006
2540.000000	88.145	171.5458
2580.000000	88.314	170.0631
2620.000000	88.474	168.5435
2650.000000	88.590	167.3692
2690.000000	88.737	165.7398
2720.000000	88.836	164.4670
2760.000000	88.952	162.7430
2800.000000	89.056	161.0233
2850.000000	89.170	158.8856
2900.000000	89.259	156.7660
2950.000000	89.317	154.6550
3000.000000	89.352	152.5360
3040.000000	89.368	150.8645
3070.000000	89.373	149.6555
3110.000000	89.370	148.1222
3150.000000	89.355	146.6829
3200.000000	89.325	144.9722
3250.000000	89.287	143.3153
3300.000000	89.239	141.7493
3350.000000	89.177	140.2948
3400.000000	89.104	138.9491
3450.000000	89.023	137.7178
3500.000000	88.936	136.5966
3550.000000	88.846	135.5585
3600.000000	88.758	134.5881
3650.000000	88.678	133.6833
3700.000000	88.609	132.8441
3750.000000	88.554	132.1003
3820.000000	88.498	131.2446
3870.000000	88.472	130.7258
3950.000000	88.443	129.9831
4000.000000	88.430	129.5609
4060.000000	88.418	129.0981
4120.000000	88.404	128.6761
4180.000000	88.388	128.2816
4250.000000	88.374	127.8707
4310.000000	88.374	127.5348
4370.000000	88.389	127.1462
4440.000000	88.442	126.5610
4500.000000	88.523	125.9293
4550.000000	88.613	125.2870
4620.000000	88.761	124.1524
4680.000000	88.893	122.9257
4750.000000	89.036	121.1742
4820.000000	89.150	119.0704
4870.000000	89.201	117.3644
4940.000000	89.217	114.7293
5000.000000	89.173	112.3020
5080.000000	89.017	108.9929
5150.000000	88.773	106.2210
5220.000000	88.428	103.7501
5300.000000	87.929	101.4965
5380.000000	87.351	100.0208
5450.000000	86.809	99.4387
5520.000000	86.265	99.5252
5600.000000	85.675	100.3808
5700.000000	85.027	102.3806
5800.000000	84.505	105.1774
5900.000000	84.123	108.5847
6000.000000	83.889	112.4211
6080.000000	83.806	115.6395
6150.000000	83.806	118.4519
6220.000000	83.870	121.1794
6300.000000	84.014	124.1077
6400.000000	84.296	127.3687
6500.000000	84.678	130.0692
6600.000000	85.145	132.0946
6700.000000	85.686	133.3220
6800.000000	86.280	133.6436
6900.000000	86.901	132.9650
7000.000000	87.512	131.1928
7100.000000	88.073	128.2793
7200.000000	88.533	124.2724
7300.000000	88.833	119.3659
7400.000000	88.927	113.9198
7500.000000	88.801	108.4217
7620.000000	88.387	102.4465
7750.000000	87.664	97.4072
7880.000000	86.714	94.3096
8000.000000	85.702	93.2701
8120.000000	84.631	93.8279
8250.000000	83.485	95.9229
8380.000000	82.432	99.1909
8500.000000	81.591	102.9354
8620.000000	80.894	107.1457
8750.000000	80.290	112.0091
8850.000000	79.915	115.8493
9000.000000	79.461	121.6929
9120.000000	79.177	126.4274
9250.000000	78.933	131.5639
9380.000000	78.745	136.6515
9500.000000	78.622	141.3115
9620.000000	78.549	145.9661
9750.000000	78.524	150.9959
9880.000000	78.553	155.9942
10000.000000	78.630	160.5689
10150.000000	78.791	166.2251
10300.000000	79.018	171.7921
10440.000000	79.284	176.8680
10600.000000	79.650	-177.5206
10750.000000	80.053	-172.4678
10900.000000	80.518	-167.6180
11060.000000	81.080	-162.6384
11200.000000	81.632	-158.4086
11380.000000	82.443	-153.0944
11500.000000	83.077	-149.6300
11720.000000	84.536	-143.7382
11800.000000	85.183	-141.9292
12060.000000	87.702	-138.9234
12200.000000	89.204	-140.2108
12410.000000	91.271	-147.1740
12500.000000	91.959	-151.9715
12650.000000	92.685	-161.7483
12800.000000	92.782	-172.4950
13150.000000	90.751	167.9443
13200.000000	90.283	166.3632
13400.000000	88.236	163.4567
13600.000000	86.219	165.3809
13800.000000	84.572	170.6901
14000.000000	83.496	177.6664
14300.000000	82.948	-172.2292
14500.000000	83.050	-167.3886
14750.000000	83.292	-164.0685
15000.000000	83.334	-162.7159
15250.000000	83.060	-161.2957
15500.000000	82.591	-158.2782
15750.000000	82.208	-153.7155
16000.000000	82.222	-148.8317
16250.000000	82.793	-145.7758
16500.000000	83.688	-146.5922
16750.000000	84.454	-151.8375
17000.000000	84.668	-160.5144
17250.000000	84.089	-170.3214
17500.000000	82.719	-178.6803
17750.000000	80.719	176.7301
18000.000000	78.363	179.4660
18250.000000	76.279	-165.3038
18500.000000	75.236	-143.8999
18750.000000	75.031	-128.6601
19000.000000	75.095	-120.0677
19250.000000	75.159	-116.3224
19500.000000	75.186	-113.9913
19750.000000	75.182	-111.7976
20000.000000	75.167	-110.3857
