* Measurement data measured by REW V5.31.3
* Source: Microphone (6- USB Sound Device        ), MICROPHONE (Master Volume), L, volume: 0.700
* Format: 256k Log Swept Sine, 1 sweep at -12.0 dBFS with no timing reference
* Dated: 09-Jun-2025 09:52:06
* REW Settings:
*  C-weighting compensation: Off
*  Target level: 75.0 dB
* Note: 
* Measurement: Classical R
* Smoothing: 1/12 octave
* Frequency Step: 1/48 octave
* Start Frequency: 20.300 Hz
*
* Freq(Hz)	SPL(dB)	Phase(degrees)
20.299999	88.249	154.6233
20.600000	88.263	154.1453
20.900000	88.280	153.5279
21.200001	88.297	152.8480
21.400000	88.307	152.3796
21.799999	88.327	151.4373
22.000000	88.337	150.9731
22.400000	88.361	150.0729
22.700001	88.381	149.4248
23.000000	88.402	148.7948
23.299999	88.423	148.1735
23.600000	88.443	147.5502
24.000000	88.464	146.7003
24.299999	88.475	146.0429
24.700001	88.483	145.1406
25.000000	88.489	144.4509
25.400000	88.498	143.5273
25.799999	88.512	142.6128
26.200001	88.533	141.7184
26.500000	88.552	141.0652
26.900000	88.578	140.2224
27.200001	88.596	139.6137
27.600000	88.615	138.8316
28.000000	88.631	138.0690
28.500000	88.648	137.0981
29.000000	88.664	136.0508
29.500000	88.676	134.9099
30.000000	88.683	133.7286
30.400000	88.685	132.8114
30.700001	88.688	132.1607
31.100000	88.694	131.3442
31.500000	88.706	130.5654
32.000000	88.723	129.5949
32.500000	88.737	128.5898
33.000000	88.743	127.5483
33.500000	88.743	126.4915
34.000000	88.745	125.4333
34.500000	88.753	124.3723
35.000000	88.768	123.3015
35.500000	88.784	122.2207
36.000000	88.800	121.1387
36.500000	88.812	120.0686
37.000000	88.822	119.0209
37.500000	88.829	118.0010
38.200001	88.835	116.6157
38.700001	88.837	115.6453
39.500000	88.840	114.0910
40.000000	88.839	113.1012
40.599998	88.836	111.8892
41.200001	88.832	110.6583
41.799999	88.828	109.4175
42.500000	88.822	107.9644
43.099998	88.816	106.7235
43.700001	88.808	105.5008
44.400002	88.800	104.1082
45.000000	88.795	102.9442
45.500000	88.789	101.9937
46.200001	88.779	100.6875
46.799999	88.770	99.5737
47.500000	88.761	98.2484
48.200001	88.754	96.8723
48.700001	88.749	95.8586
49.400002	88.736	94.4107
50.000000	88.713	93.1659
50.799999	88.662	91.5529
51.500000	88.608	90.2183
52.200001	88.560	88.9438
53.000000	88.517	87.4973
53.799999	88.483	85.9986
54.500000	88.453	84.6411
55.200001	88.419	83.2864
56.000000	88.375	81.7948
57.000000	88.318	79.9926
58.000000	88.260	78.1854
59.000000	88.203	76.3760
60.000000	88.146	74.5642
60.799999	88.089	73.1160
61.500000	88.029	71.8643
62.200001	87.968	70.6252
63.000000	87.902	69.2077
64.000000	87.825	67.4149
65.000000	87.749	65.6113
66.000000	87.672	63.8366
67.000000	87.596	62.1153
68.000000	87.515	60.4349
69.000000	87.426	58.7742
70.000000	87.331	57.1394
71.000000	87.236	55.5605
72.000000	87.139	54.0503
73.000000	87.033	52.5793
74.000000	86.916	51.1008
75.000000	86.797	49.5984
76.199997	86.658	47.8087
77.500000	86.512	45.9780
78.800003	86.367	44.2642
80.000000	86.230	42.6875
81.199997	86.087	41.0456
82.500000	85.921	39.2346
83.800003	85.755	37.5125
85.000000	85.611	36.0439
86.199997	85.470	34.6469
87.500000	85.309	33.1579
88.500000	85.183	32.0155
90.000000	85.002	30.3362
91.199997	84.860	29.0659
92.500000	84.708	27.7640
93.800003	84.560	26.5162
95.000000	84.424	25.4131
96.199997	84.281	24.3519
97.500000	84.118	23.2562
98.800003	83.952	22.2401
100.000000	83.800	21.3609
101.500000	83.618	20.2752
103.000000	83.450	19.1729
104.400002	83.302	18.1748
106.000000	83.137	17.1869
107.500000	82.988	16.4442
109.000000	82.848	15.7674
110.599998	82.715	15.0128
112.000000	82.616	14.3343
113.800003	82.503	13.4736
115.000000	82.428	12.9001
117.199997	82.289	11.9073
118.000000	82.241	11.5773
120.599998	82.097	10.4918
122.000000	82.024	9.8584
124.099998	81.922	8.8924
125.000000	81.886	8.4959
126.500000	81.839	7.8886
128.000000	81.807	7.3473
131.500000	81.763	6.0006
132.000000	81.759	5.7646
134.000000	81.746	4.7235
136.000000	81.736	3.6280
138.000000	81.726	2.5190
140.000000	81.716	1.3799
143.000000	81.711	-0.2638
145.000000	81.723	-1.3112
147.500000	81.749	-2.6645
150.000000	81.763	-3.9816
152.500000	81.767	-5.2460
155.000000	81.770	-6.5997
157.500000	81.783	-8.1093
160.000000	81.810	-9.6669
162.500000	81.844	-11.2500
165.000000	81.881	-12.8571
167.500000	81.913	-14.4407
170.000000	81.940	-16.0048
172.500000	81.964	-17.5690
175.000000	81.985	-19.2025
177.500000	82.003	-20.8988
180.000000	82.016	-22.5825
182.500000	82.026	-24.2182
185.000000	82.030	-25.8242
187.500000	82.026	-27.4358
190.000000	82.013	-29.0285
192.500000	81.995	-30.5723
195.000000	81.983	-32.0749
197.500000	81.985	-33.5686
200.000000	82.010	-35.0723
203.000000	82.070	-36.8843
206.000000	82.153	-38.7757
209.000000	82.247	-40.8119
212.000000	82.341	-42.9653
214.000000	82.402	-44.4047
218.000000	82.510	-47.0654
220.000000	82.552	-48.2805
224.000000	82.623	-50.7124
227.000000	82.678	-52.6312
230.000000	82.740	-54.6190
233.000000	82.805	-56.6696
236.000000	82.870	-58.7671
240.000000	82.955	-61.5496
243.000000	83.020	-63.6062
247.000000	83.106	-66.3714
250.000000	83.166	-68.4952
254.000000	83.239	-71.3929
258.000000	83.311	-74.3132
262.000000	83.383	-77.1868
265.000000	83.436	-79.3112
269.000000	83.507	-82.1185
272.000000	83.560	-84.2172
276.000000	83.631	-87.0318
280.000000	83.697	-89.8552
285.000000	83.775	-93.3596
290.000000	83.852	-96.8471
295.000000	83.933	-100.3972
300.000000	84.008	-104.0160
304.000000	84.065	-106.9311
307.000000	84.107	-109.1262
311.000000	84.162	-112.0575
315.000000	84.218	-114.9817
320.000000	84.286	-118.6191
325.000000	84.345	-122.2080
330.000000	84.393	-125.7027
335.000000	84.437	-129.1223
340.000000	84.483	-132.5542
345.000000	84.529	-136.0525
350.000000	84.570	-139.5708
355.000000	84.608	-143.0643
360.000000	84.650	-146.5292
365.000000	84.700	-149.9658
370.000000	84.752	-153.3691
375.000000	84.797	-156.7690
382.000000	84.850	-161.5672
387.000000	84.881	-165.0219
395.000000	84.914	-170.5818
400.000000	84.923	-174.0161
406.000000	84.930	-178.0666
412.000000	84.941	177.9146
418.000000	84.948	173.9326
425.000000	84.947	169.3936
431.000000	84.947	165.5713
437.000000	84.955	161.7245
444.000000	84.971	157.2053
450.000000	84.980	153.3450
455.000000	84.982	150.1707
462.000000	84.977	145.8214
468.000000	84.959	142.1564
475.000000	84.931	137.8804
482.000000	84.914	133.5959
487.000000	84.906	130.5576
494.000000	84.893	126.3242
500.000000	84.884	122.7109
508.000000	84.873	117.9565
515.000000	84.857	113.8690
522.000000	84.832	109.8109
530.000000	84.800	105.1909
538.000000	84.767	100.6128
545.000000	84.741	96.6543
552.000000	84.717	92.7778
560.000000	84.686	88.4521
570.000000	84.646	83.1016
580.000000	84.611	77.7542
590.000000	84.579	72.4225
600.000000	84.544	67.1011
608.000000	84.505	62.8783
615.000000	84.463	59.2607
622.000000	84.418	55.7222
630.000000	84.363	51.7284
640.000000	84.294	46.7409
650.000000	84.229	41.8151
660.000000	84.170	36.9839
670.000000	84.125	32.2459
680.000000	84.091	27.5989
690.000000	84.055	22.9931
700.000000	84.012	18.3933
710.000000	83.971	13.8097
720.000000	83.930	9.2936
730.000000	83.882	4.9150
740.000000	83.823	0.5992
750.000000	83.765	-3.7620
762.000000	83.710	-9.0387
775.000000	83.663	-14.5927
788.000000	83.614	-19.9204
800.000000	83.561	-24.7706
812.000000	83.505	-29.5701
825.000000	83.448	-34.6460
838.000000	83.395	-39.6399
850.000000	83.350	-44.2492
862.000000	83.313	-48.8149
875.000000	83.289	-53.6786
885.000000	83.277	-57.3726
900.000000	83.264	-62.8519
912.000000	83.255	-67.1595
925.000000	83.245	-71.7196
938.000000	83.241	-76.1785
950.000000	83.245	-80.2430
962.000000	83.250	-84.2895
975.000000	83.253	-88.6496
988.000000	83.257	-92.9939
1000.000000	83.266	-97.0237
1015.000000	83.282	-102.0714
1030.000000	83.300	-107.0458
1044.000000	83.321	-111.6322
1060.000000	83.352	-116.8785
1075.000000	83.390	-121.7888
1090.000000	83.434	-126.6583
1106.000000	83.482	-131.7654
1120.000000	83.527	-136.1361
1138.000000	83.586	-141.6523
1150.000000	83.629	-145.2925
1172.000000	83.709	-151.9468
1180.000000	83.737	-154.3799
1206.000000	83.832	-162.2969
1220.000000	83.893	-166.5059
1241.000000	84.006	-172.7150
1250.000000	84.060	-175.3355
1265.000000	84.157	-179.6486
1280.000000	84.257	176.0898
1315.000000	84.470	166.3183
1320.000000	84.494	164.9456
1340.000000	84.560	159.5049
1360.000000	84.583	154.1394
1380.000000	84.576	148.8495
1400.000000	84.558	143.6338
1430.000000	84.549	135.9277
1450.000000	84.571	130.9123
1475.000000	84.643	124.8530
1500.000000	84.760	118.9541
1525.000000	84.903	113.0686
1550.000000	85.066	107.1734
1575.000000	85.248	101.3748
1600.000000	85.442	95.7025
1625.000000	85.638	90.1721
1650.000000	85.827	84.6997
1675.000000	86.016	79.1665
1700.000000	86.219	73.6073
1725.000000	86.433	68.0771
1750.000000	86.653	62.5319
1775.000000	86.875	56.9641
1800.000000	87.092	51.4464
1825.000000	87.299	46.0160
1850.000000	87.497	40.6236
1875.000000	87.687	35.2456
1900.000000	87.865	29.8851
1925.000000	88.035	24.5463
1950.000000	88.203	19.2402
1975.000000	88.373	13.9745
2000.000000	88.540	8.7427
2030.000000	88.733	2.5145
2060.000000	88.927	-3.6353
2090.000000	89.120	-9.6403
2120.000000	89.300	-15.4835
2140.000000	89.408	-19.3172
2180.000000	89.602	-26.9385
2200.000000	89.692	-30.7586
2240.000000	89.865	-38.3934
2270.000000	89.986	-44.0205
2300.000000	90.091	-49.5116
2330.000000	90.183	-54.8632
2360.000000	90.270	-60.0811
2400.000000	90.376	-66.8416
2430.000000	90.446	-71.7778
2470.000000	90.526	-78.1616
2500.000000	90.580	-82.7917
2540.000000	90.641	-88.7582
2580.000000	90.694	-94.4792
2620.000000	90.752	-99.9379
2650.000000	90.804	-103.8524
2690.000000	90.889	-108.8804
2720.000000	90.962	-112.5684
2760.000000	91.069	-117.4198
2800.000000	91.181	-122.1802
2850.000000	91.320	-128.0835
2900.000000	91.452	-133.9951
2950.000000	91.576	-139.7461
3000.000000	91.674	-145.2849
3040.000000	91.728	-149.5750
3070.000000	91.758	-152.6764
3110.000000	91.784	-156.6517
3150.000000	91.799	-160.5020
3200.000000	91.811	-165.1514
3250.000000	91.811	-169.5613
3300.000000	91.791	-173.7114
3350.000000	91.754	-177.5891
3400.000000	91.700	178.8258
3450.000000	91.626	175.5291
3500.000000	91.535	172.5210
3550.000000	91.432	169.8345
3600.000000	91.322	167.5149
3650.000000	91.217	165.5591
3700.000000	91.141	163.9460
3750.000000	91.104	162.5922
3820.000000	91.092	160.9602
3870.000000	91.090	159.9722
3950.000000	91.079	158.8474
4000.000000	91.077	158.4402
4060.000000	91.089	158.2561
4120.000000	91.116	158.3721
4180.000000	91.150	158.7170
4250.000000	91.198	159.3488
4310.000000	91.260	160.0232
4370.000000	91.354	160.7889
4440.000000	91.506	161.7380
4500.000000	91.668	162.5248
4550.000000	91.822	163.1191
4620.000000	92.054	163.8011
4680.000000	92.253	164.1937
4750.000000	92.459	164.3843
4820.000000	92.601	164.2866
4870.000000	92.646	164.0717
4940.000000	92.614	163.6578
5000.000000	92.487	163.3113
5080.000000	92.160	163.1473
5150.000000	91.720	163.6226
5220.000000	91.149	165.0248
5300.000000	90.379	168.0941
5380.000000	89.552	172.8943
5450.000000	88.842	178.4567
5520.000000	88.192	-174.8756
5600.000000	87.561	-166.1807
5700.000000	86.951	-154.2935
5800.000000	86.507	-141.8851
5900.000000	86.183	-129.2378
6000.000000	85.944	-116.3534
6080.000000	85.791	-105.8030
6150.000000	85.675	-96.3441
6220.000000	85.575	-86.6494
6300.000000	85.482	-75.2706
6400.000000	85.411	-60.6263
6500.000000	85.396	-45.6135
6600.000000	85.434	-30.2755
6700.000000	85.531	-14.5565
6800.000000	85.700	1.5798
6900.000000	85.959	18.0653
7000.000000	86.318	34.7494
7100.000000	86.784	51.4315
7200.000000	87.368	67.8677
7300.000000	88.067	83.6641
7400.000000	88.846	98.3025
7500.000000	89.649	111.2937
7620.000000	90.513	124.2601
7750.000000	91.102	135.2963
7880.000000	91.113	144.6847
8000.000000	90.543	153.7700
8120.000000	89.480	164.9349
8250.000000	87.928	-179.2352
8380.000000	86.161	-158.8655
8500.000000	84.506	-136.1711
8620.000000	82.945	-110.3347
8750.000000	81.435	-79.6561
8850.000000	80.420	-54.6736
9000.000000	79.129	-15.5793
9120.000000	78.278	16.7957
9250.000000	77.522	52.6549
9380.000000	76.924	89.0031
9500.000000	76.504	122.7605
9620.000000	76.198	156.7023
9750.000000	75.979	-166.2661
9880.000000	75.862	-129.1237
10000.000000	75.827	-94.9368
10150.000000	75.862	-52.2111
10300.000000	75.971	-9.2264
10440.000000	76.129	31.0946
10600.000000	76.366	77.3386
10750.000000	76.641	120.9301
10900.000000	76.966	164.8183
11060.000000	77.367	-148.1149
11200.000000	77.758	-106.5937
11380.000000	78.303	-53.3441
11500.000000	78.687	-18.0933
11720.000000	79.448	47.4158
11800.000000	79.750	71.6217
12060.000000	80.816	150.6933
12200.000000	81.437	-166.7676
12410.000000	82.435	-103.0386
12500.000000	82.891	-75.4410
12650.000000	83.693	-28.1953
12800.000000	84.548	21.3540
13150.000000	86.564	132.8606
13200.000000	86.816	145.7986
13400.000000	87.586	-171.3196
13600.000000	87.766	-137.9384
13800.000000	87.187	-107.3760
14000.000000	85.901	-73.6187
14300.000000	83.189	-2.6763
14500.000000	81.288	71.5994
14750.000000	79.189	-177.6616
15000.000000	77.554	-77.8457
15250.000000	76.364	20.8802
15500.000000	75.526	121.0535
15750.000000	74.992	-137.4406
16000.000000	74.766	-35.1987
16250.000000	74.791	63.9563
16500.000000	74.883	153.5723
16750.000000	74.802	-128.9717
17000.000000	74.378	-58.5330
17250.000000	73.579	12.3147
17500.000000	72.514	93.8792
17750.000000	71.399	-154.6902
18000.000000	70.474	-21.5276
18250.000000	69.891	91.9304
18500.000000	69.633	-151.5337
18750.000000	69.558	-47.0022
19000.000000	69.509	47.8948
19250.000000	69.378	128.7539
19500.000000	69.125	-118.3428
19750.000000	68.797	36.5713
20000.000000	68.558	59.2251
