* Measurement data measured by REW V5.31.3
* Source: Microphone (4- USB Audio Device), MICROPHONE (Master Volume), L, volume: 0.250
* Format: 256k Log Swept Sine, 1 sweep at -12.0 dBFS with no timing reference
* Dated: 07-Aug-2024 19:40:44
* REW Settings:
*  C-weighting compensation: Off
*  Target level: 75.0 dB
* Note: 
* Measurement: Creative Outlier Free Pro +L
* Smoothing: 1/12 octave
* Frequency Step: 1/48 octave
* Start Frequency: 20.300 Hz
*
* Freq(Hz)	SPL(dB)	Phase(degrees)
20.299999	48.611	104.1905
20.600000	48.195	99.1681
20.900000	47.406	93.6909
21.200001	46.244	89.4450
21.400000	45.321	87.9566
21.799999	43.450	89.3506
22.000000	42.690	92.1004
22.400000	41.755	99.3078
22.700001	41.379	104.3944
23.000000	41.000	109.0384
23.299999	40.502	113.7681
23.600000	39.926	118.4183
24.000000	39.203	121.6394
24.299999	38.740	118.6547
24.700001	38.285	102.5200
25.000000	38.198	78.9709
25.400000	38.431	41.5930
25.799999	38.547	13.1118
26.200001	37.979	-8.9906
26.500000	37.075	-28.3422
26.900000	35.763	-81.1504
27.200001	35.206	-133.0907
27.600000	35.036	-160.6140
28.000000	34.813	-168.4665
28.500000	33.867	-171.5652
29.000000	32.322	179.6966
29.500000	31.416	140.3378
30.000000	32.655	106.9138
30.400000	34.889	138.2071
30.700001	36.856	158.9869
31.100000	39.250	164.1174
31.500000	40.868	159.3410
32.000000	41.503	147.9420
32.500000	40.749	133.7377
33.000000	39.310	125.3307
33.500000	38.788	151.4828
34.000000	39.976	174.2841
34.500000	41.289	173.9064
35.000000	41.566	173.5635
35.500000	40.869	-176.8198
36.000000	40.116	-149.5671
36.500000	40.106	-127.5315
37.000000	40.808	-161.1765
37.500000	42.097	111.8390
38.200001	43.621	100.3056
38.700001	43.636	101.7360
39.500000	42.281	114.4987
40.000000	42.126	134.4292
40.599998	44.213	-168.0308
41.200001	47.463	172.3109
41.799999	50.436	145.8828
42.500000	52.690	130.3987
43.099998	53.144	122.0423
43.700001	52.183	118.0002
44.400002	49.828	121.2142
45.000000	47.869	125.5467
45.500000	47.039	121.7324
46.200001	46.887	108.6116
46.799999	46.885	96.5673
47.500000	46.800	68.9559
48.200001	47.077	-29.9442
48.700001	47.360	-49.7488
49.400002	47.354	-45.0767
50.000000	47.054	-25.6116
50.799999	46.480	2.9551
51.500000	45.497	21.9880
52.200001	44.300	37.6245
53.000000	43.500	35.8777
53.799999	43.538	11.7103
54.500000	43.954	-5.4097
55.200001	44.451	-13.1149
56.000000	45.074	-19.4388
57.000000	45.681	-35.5743
58.000000	45.818	-55.1550
59.000000	45.875	-61.5912
60.000000	46.222	-57.7866
60.799999	46.361	-55.5500
61.500000	46.160	-56.3370
62.200001	45.665	-59.1689
63.000000	44.940	-62.6411
64.000000	44.485	-62.6362
65.000000	45.003	-57.2173
66.000000	46.153	-50.9252
67.000000	47.445	-50.0311
68.000000	48.401	-56.9246
69.000000	48.861	-67.8452
70.000000	49.003	-76.0427
71.000000	49.279	-76.3229
72.000000	49.998	-71.9478
73.000000	50.653	-70.5612
74.000000	50.701	-72.9431
75.000000	50.222	-76.0478
76.199997	49.797	-77.1476
77.500000	50.614	-75.2762
78.800003	52.462	-70.9891
80.000000	54.428	-67.1823
81.199997	56.218	-68.5406
82.500000	57.930	-76.8834
83.800003	59.483	-88.1307
85.000000	60.721	-97.3196
86.199997	61.748	-104.9612
87.500000	62.729	-112.1835
88.500000	63.478	-117.5614
90.000000	64.586	-126.8827
91.199997	65.392	-135.5695
92.500000	66.186	-144.9456
93.800003	66.901	-153.3268
95.000000	67.530	-160.2560
96.199997	68.196	-166.9308
97.500000	68.969	-174.2797
98.800003	69.763	177.9266
100.000000	70.495	169.9518
101.500000	71.394	158.7427
103.000000	72.228	146.6602
104.400002	72.861	135.0431
106.000000	73.313	121.4365
107.500000	73.433	108.6704
109.000000	73.283	96.5180
110.599998	72.887	84.7964
112.000000	72.408	75.7197
113.800003	71.723	65.4327
115.000000	71.296	59.3624
117.199997	70.676	49.6977
118.000000	70.502	46.4855
120.599998	70.097	36.6110
122.000000	69.957	31.6840
124.099998	69.828	24.6750
125.000000	69.801	21.6607
126.500000	69.771	16.4729
128.000000	69.709	11.0635
131.500000	69.217	-2.2229
132.000000	69.111	-4.0944
134.000000	68.668	-11.0066
136.000000	68.201	-16.4241
138.000000	67.623	-20.1705
140.000000	67.047	-22.2810
143.000000	66.699	-23.5759
145.000000	66.814	-24.5342
147.500000	67.184	-26.8350
150.000000	67.687	-30.1439
152.500000	68.288	-34.1745
155.000000	68.924	-39.3384
157.500000	69.435	-46.0105
160.000000	69.605	-53.6176
162.500000	69.334	-60.0495
165.000000	68.787	-62.8240
167.500000	68.507	-61.2006
170.000000	69.018	-57.9604
172.500000	70.156	-56.6559
175.000000	71.486	-58.1737
177.500000	72.781	-61.6753
180.000000	73.999	-66.1508
182.500000	75.191	-71.1479
185.000000	76.416	-76.7622
187.500000	77.694	-83.2050
190.000000	79.026	-90.5010
192.500000	80.428	-98.6398
195.000000	81.892	-107.8728
197.500000	83.354	-118.6168
200.000000	84.697	-131.2150
203.000000	85.929	-148.7905
206.000000	86.484	-168.1582
209.000000	86.206	172.8219
212.000000	85.265	156.4263
214.000000	84.468	147.2090
218.000000	82.700	132.1251
220.000000	81.669	126.7924
224.000000	79.458	123.9148
227.000000	78.371	129.5518
230.000000	78.458	137.0830
233.000000	79.462	140.8434
236.000000	80.799	140.7194
240.000000	82.968	138.6266
243.000000	84.991	135.9559
247.000000	87.870	127.8738
250.000000	89.860	117.8385
254.000000	92.071	100.3973
258.000000	93.688	80.0068
262.000000	94.668	58.2170
265.000000	94.994	41.7532
269.000000	94.958	20.5724
272.000000	94.657	5.7262
276.000000	94.028	-12.2952
280.000000	93.275	-28.2614
285.000000	92.319	-45.6838
290.000000	91.438	-60.8816
295.000000	90.652	-74.5012
300.000000	89.963	-86.9799
304.000000	89.483	-96.3317
307.000000	89.165	-103.0360
311.000000	88.792	-111.6144
315.000000	88.471	-119.8795
320.000000	88.130	-129.9607
325.000000	87.836	-139.9324
330.000000	87.566	-149.7637
335.000000	87.305	-159.3104
340.000000	87.064	-168.5013
345.000000	86.860	-177.2827
350.000000	86.701	174.3215
355.000000	86.591	166.3103
360.000000	86.553	158.6584
365.000000	86.626	151.0630
370.000000	86.816	143.0840
375.000000	87.067	134.4603
382.000000	87.398	121.4573
387.000000	87.569	111.8521
395.000000	87.736	96.5850
400.000000	87.818	87.2540
406.000000	87.935	76.1470
412.000000	88.068	64.9908
418.000000	88.192	53.7240
425.000000	88.301	40.5204
431.000000	88.357	29.2427
437.000000	88.384	18.0396
444.000000	88.385	5.0382
450.000000	88.358	-5.9694
455.000000	88.311	-14.9822
462.000000	88.211	-27.3407
468.000000	88.104	-37.6465
475.000000	87.960	-49.2244
482.000000	87.807	-60.2947
487.000000	87.709	-67.9219
494.000000	87.621	-78.2236
500.000000	87.621	-86.7727
508.000000	87.759	-98.0856
515.000000	88.008	-108.2987
522.000000	88.316	-119.1257
530.000000	88.628	-132.3164
538.000000	88.819	-146.0654
545.000000	88.883	-158.2074
552.000000	88.873	-170.1479
560.000000	88.778	176.5887
570.000000	88.527	160.6274
580.000000	88.134	145.9017
590.000000	87.749	133.2367
600.000000	87.776	122.5229
608.000000	88.260	113.7831
615.000000	88.855	104.7589
622.000000	89.403	94.3245
630.000000	89.830	81.3289
640.000000	90.047	64.8763
650.000000	90.041	49.2585
660.000000	89.980	34.6324
670.000000	89.966	20.7017
680.000000	90.035	7.1304
690.000000	90.188	-6.3970
700.000000	90.390	-19.9802
710.000000	90.594	-33.6174
720.000000	90.772	-47.3716
730.000000	90.906	-61.2227
740.000000	90.987	-75.0901
750.000000	91.021	-88.9189
762.000000	91.022	-105.2744
775.000000	90.996	-122.6313
788.000000	90.975	-139.7158
800.000000	90.970	-155.0586
812.000000	90.979	-170.0400
825.000000	91.022	173.9231
838.000000	91.096	157.9966
850.000000	91.179	143.3521
862.000000	91.271	128.7158
875.000000	91.380	112.7913
885.000000	91.462	100.4666
900.000000	91.554	81.9121
912.000000	91.577	67.1304
925.000000	91.532	51.3025
938.000000	91.412	35.7566
950.000000	91.254	21.7520
962.000000	91.077	8.1392
975.000000	90.886	-6.1763
988.000000	90.710	-20.1177
1000.000000	90.569	-32.7249
1015.000000	90.425	-48.1948
1030.000000	90.317	-63.4248
1044.000000	90.251	-77.4351
1060.000000	90.230	-93.2805
1075.000000	90.283	-108.1045
1090.000000	90.409	-122.8877
1106.000000	90.605	-138.6226
1120.000000	90.803	-152.4834
1138.000000	91.078	-170.4939
1150.000000	91.266	177.4365
1172.000000	91.582	155.3638
1180.000000	91.676	147.3879
1206.000000	91.904	121.6758
1220.000000	92.001	107.9932
1241.000000	92.159	87.8093
1250.000000	92.238	79.2878
1265.000000	92.388	65.2161
1280.000000	92.557	51.2720
1315.000000	92.982	19.1399
1320.000000	93.039	14.5820
1340.000000	93.240	-3.6489
1360.000000	93.402	-21.9136
1380.000000	93.530	-40.1021
1400.000000	93.628	-58.0930
1430.000000	93.746	-84.6216
1450.000000	93.830	-101.9668
1475.000000	93.958	-123.3411
1500.000000	94.125	-144.4583
1525.000000	94.321	-165.3096
1550.000000	94.527	174.1882
1575.000000	94.746	154.0669
1600.000000	94.986	134.3445
1625.000000	95.249	114.8872
1650.000000	95.544	95.5532
1675.000000	95.873	76.3657
1700.000000	96.220	57.4011
1725.000000	96.575	38.7173
1750.000000	96.941	20.3501
1775.000000	97.318	2.2446
1800.000000	97.700	-15.7771
1825.000000	98.081	-33.8777
1850.000000	98.464	-52.0676
1875.000000	98.839	-70.2495
1900.000000	99.183	-88.3369
1925.000000	99.456	-106.2625
1950.000000	99.622	-123.8567
1975.000000	99.709	-140.8594
2000.000000	99.820	-157.2222
2030.000000	100.065	-176.5181
2060.000000	100.379	164.0723
2090.000000	100.690	144.4419
2120.000000	100.970	124.6958
2140.000000	101.137	111.5312
2180.000000	101.420	85.2935
2200.000000	101.537	72.2412
2240.000000	101.722	46.3691
2270.000000	101.828	27.2554
2300.000000	101.914	8.4597
2330.000000	101.981	-9.9683
2360.000000	102.033	-28.0137
2400.000000	102.077	-51.5891
2430.000000	102.084	-69.0352
2470.000000	102.054	-92.0696
2500.000000	101.983	-109.1484
2540.000000	101.791	-131.5242
2580.000000	101.499	-153.1653
2620.000000	101.163	-173.8242
2650.000000	100.932	171.3428
2690.000000	100.685	152.3313
2720.000000	100.538	138.5483
2760.000000	100.369	120.7031
2800.000000	100.202	103.3804
2850.000000	99.989	82.2971
2900.000000	99.797	61.7827
2950.000000	99.652	41.9873
3000.000000	99.548	23.0396
3040.000000	99.481	8.3723
3070.000000	99.442	-2.3765
3110.000000	99.412	-16.3313
3150.000000	99.403	-29.8474
3200.000000	99.416	-46.1748
3250.000000	99.444	-61.9229
3300.000000	99.478	-77.1113
3350.000000	99.526	-91.7803
3400.000000	99.606	-105.9866
3450.000000	99.726	-119.7461
3500.000000	99.890	-133.1082
3550.000000	100.101	-146.1306
3600.000000	100.358	-158.9319
3650.000000	100.650	-171.6765
3700.000000	100.971	175.6240
3750.000000	101.317	163.1729
3820.000000	101.828	146.4478
3870.000000	102.184	134.8521
3950.000000	102.677	116.5930
4000.000000	102.924	105.6431
4060.000000	103.166	93.2197
4120.000000	103.342	81.3325
4180.000000	103.424	69.6733
4250.000000	103.363	56.4656
4310.000000	103.195	45.8523
4370.000000	102.995	35.9590
4440.000000	102.770	24.6885
4500.000000	102.545	14.9648
4550.000000	102.311	7.0962
4620.000000	101.914	-3.0171
4680.000000	101.537	-10.8721
4750.000000	101.047	-19.4409
4820.000000	100.493	-27.2354
4870.000000	100.081	-32.0698
4940.000000	99.520	-37.7197
5000.000000	99.060	-41.6836
5080.000000	98.465	-45.8594
5150.000000	97.963	-48.4614
5220.000000	97.497	-50.1221
5300.000000	97.023	-51.1191
5380.000000	96.611	-51.3032
5450.000000	96.307	-50.8037
5520.000000	96.059	-49.7983
5600.000000	95.827	-48.0742
5700.000000	95.608	-44.6240
5800.000000	95.503	-39.3662
5900.000000	95.528	-32.6387
6000.000000	95.714	-24.9351
6080.000000	96.021	-18.5972
6150.000000	96.432	-13.2793
6220.000000	96.998	-8.2314
6300.000000	97.863	-2.7422
6400.000000	99.297	3.2241
6500.000000	101.083	6.9150
6600.000000	103.062	7.1147
6700.000000	104.950	3.3516
6800.000000	106.404	-3.8477
6900.000000	107.154	-12.8037
7000.000000	107.095	-20.8950
7100.000000	106.343	-25.6006
7200.000000	105.160	-25.5010
7300.000000	103.826	-20.3564
7400.000000	102.599	-10.8994
7500.000000	101.676	1.0254
7620.000000	101.000	15.2563
7750.000000	100.556	27.5161
7880.000000	100.019	35.8633
8000.000000	99.231	40.9136
8120.000000	98.072	44.2727
8250.000000	96.364	47.6619
8380.000000	94.246	52.5098
8500.000000	92.014	59.7466
8620.000000	89.629	71.6602
8750.000000	87.093	93.1052
8850.000000	85.419	118.0662
9000.000000	83.808	167.6362
9120.000000	83.303	-153.6824
9250.000000	83.075	-119.5059
9380.000000	82.709	-90.1855
9500.000000	82.037	-64.7622
9620.000000	81.031	-38.4299
9750.000000	79.795	-7.2529
9880.000000	79.014	21.4570
10000.000000	79.415	-13.7524
10150.000000	81.407	-37.1499
10300.000000	83.898	-4.0242
10440.000000	85.989	31.2903
10600.000000	87.964	79.5688
10750.000000	89.466	130.6313
10900.000000	90.567	175.1235
11060.000000	91.122	-145.7993
11200.000000	91.019	-112.8994
11380.000000	90.227	-60.7793
11500.000000	89.440	-9.6377
11720.000000	87.631	90.0098
11800.000000	86.852	118.5913
12060.000000	84.006	-146.5691
12200.000000	82.508	-56.8491
12410.000000	80.789	119.3164
12500.000000	80.317	167.3977
12650.000000	79.842	-118.9343
12800.000000	79.638	-38.1611
13150.000000	79.553	144.2505
13200.000000	79.542	179.7825
13400.000000	79.392	-39.0273
13600.000000	78.871	40.0085
13800.000000	77.760	102.6643
14000.000000	76.024	159.6794
14300.000000	72.636	109.7188
14500.000000	70.342	136.7178
14750.000000	68.246	150.6860
15000.000000	67.171	-173.9148
15250.000000	66.274	-126.6367
15500.000000	65.157	-102.4385
15750.000000	64.343	-59.0327
16000.000000	64.809	-38.9047
16250.000000	66.009	-29.2943
16500.000000	66.972	-45.5804
16750.000000	67.563	-37.1298
17000.000000	67.876	-29.5830
17250.000000	68.016	-0.7185
17500.000000	68.075	38.7933
17750.000000	68.120	-20.3431
18000.000000	68.122	-128.1194
18250.000000	67.947	-111.6011
18500.000000	67.416	-107.6528
18750.000000	66.348	-94.7451
19000.000000	64.945	-87.3499
19250.000000	63.786	-103.0168
19500.000000	63.058	-124.5916
19750.000000	62.570	-111.6899
20000.000000	62.264	-99.3257
