* Measurement data measured by REW V5.31.3
* Source: Microphone (4- USB Audio Device), MICROPHONE (Master Volume), R, volume: 0.250
* Format: 256k Log Swept Sine, 1 sweep at -12.0 dBFS with no timing reference
* Dated: 01-Aug-2024 14:36:14
* REW Settings:
*  C-weighting compensation: Off
*  Target level: 75.0 dB
* Note: 
* Measurement: Dunu Titan S2 L
* Smoothing: 1/12 octave
* Frequency Step: 1/48 octave
* Start Frequency: 20.300 Hz
*
* Freq(Hz)	SPL(dB)	Phase(degrees)
20.299999	105.839	-88.1860
20.600000	105.933	-88.9830
20.900000	106.052	-89.9832
21.200001	106.179	-91.0577
21.400000	106.265	-91.7896
21.799999	106.435	-93.2627
22.000000	106.518	-93.9961
22.400000	106.683	-95.4398
22.700001	106.802	-96.4918
23.000000	106.916	-97.5124
23.299999	107.027	-98.5024
23.600000	107.134	-99.4674
24.000000	107.272	-100.7303
24.299999	107.371	-101.6703
24.700001	107.499	-102.9250
25.000000	107.592	-103.8686
25.400000	107.712	-105.1252
25.799999	107.828	-106.3701
26.200001	107.941	-107.5930
26.500000	108.024	-108.4925
26.900000	108.131	-109.6681
27.200001	108.209	-110.5340
27.600000	108.308	-111.6710
28.000000	108.403	-112.7914
28.500000	108.513	-114.1712
29.000000	108.618	-115.5284
29.500000	108.718	-116.8618
30.000000	108.815	-118.1682
30.400000	108.889	-119.1913
30.700001	108.944	-119.9448
31.100000	109.014	-120.9313
31.500000	109.081	-121.8988
32.000000	109.161	-123.0868
32.500000	109.238	-124.2573
33.000000	109.313	-125.4134
33.500000	109.385	-126.5536
34.000000	109.454	-127.6727
34.500000	109.521	-128.7652
35.000000	109.585	-129.8289
35.500000	109.646	-130.8664
36.000000	109.704	-131.8834
36.500000	109.759	-132.8854
37.000000	109.811	-133.8743
37.500000	109.861	-134.8485
38.200001	109.931	-136.1823
38.700001	109.979	-137.1114
39.500000	110.054	-138.5591
40.000000	110.098	-139.4437
40.599998	110.147	-140.4902
41.200001	110.192	-141.5228
41.799999	110.236	-142.5391
42.500000	110.285	-143.7007
43.099998	110.328	-144.6801
43.700001	110.369	-145.6529
44.400002	110.415	-146.7819
45.000000	110.450	-147.7348
45.500000	110.477	-148.5116
46.200001	110.513	-149.5728
46.799999	110.543	-150.4665
47.500000	110.574	-151.4996
48.200001	110.600	-152.5214
48.700001	110.616	-153.2415
49.400002	110.638	-154.2344
50.000000	110.656	-155.0729
50.799999	110.678	-156.1743
51.500000	110.695	-157.1217
52.200001	110.711	-158.0555
53.000000	110.727	-159.1137
53.799999	110.741	-160.1678
54.500000	110.751	-161.0799
55.200001	110.759	-161.9688
56.000000	110.766	-162.9482
57.000000	110.772	-164.1288
58.000000	110.774	-165.2861
59.000000	110.773	-166.4346
60.000000	110.774	-167.5694
60.799999	110.774	-168.4610
61.500000	110.774	-169.2274
62.200001	110.773	-169.9813
63.000000	110.770	-170.8281
64.000000	110.764	-171.8643
65.000000	110.755	-172.8757
66.000000	110.745	-173.8633
67.000000	110.733	-174.8272
68.000000	110.721	-175.7672
69.000000	110.708	-176.6823
70.000000	110.694	-177.5720
71.000000	110.678	-178.4374
72.000000	110.661	-179.2814
73.000000	110.643	179.8926
74.000000	110.624	179.0831
75.000000	110.604	178.2910
76.199997	110.581	177.3656
77.500000	110.555	176.3935
78.800003	110.529	175.4493
80.000000	110.503	174.6004
81.199997	110.475	173.7728
82.500000	110.443	172.9016
83.800003	110.410	172.0581
85.000000	110.381	171.3000
86.199997	110.353	170.5553
87.500000	110.323	169.7616
88.500000	110.301	169.1630
90.000000	110.268	168.2883
91.199997	110.240	167.6047
92.500000	110.210	166.8754
93.800003	110.180	166.1575
95.000000	110.152	165.5061
96.199997	110.123	164.8662
97.500000	110.092	164.1860
98.800003	110.060	163.5183
100.000000	110.031	162.9121
101.500000	109.995	162.1675
103.000000	109.959	161.4341
104.400002	109.926	160.7567
106.000000	109.888	159.9939
107.500000	109.853	159.2941
109.000000	109.818	158.6099
110.599998	109.782	157.8983
112.000000	109.750	157.2894
113.800003	109.709	156.5186
115.000000	109.681	156.0091
117.199997	109.631	155.0822
118.000000	109.612	154.7471
120.599998	109.550	153.6659
122.000000	109.515	153.0921
124.099998	109.462	152.2424
125.000000	109.438	151.8809
126.500000	109.400	151.2814
128.000000	109.361	150.6873
131.500000	109.267	149.3336
132.000000	109.254	149.1444
134.000000	109.200	148.3990
136.000000	109.148	147.6738
138.000000	109.097	146.9726
140.000000	109.048	146.2967
143.000000	108.976	145.3185
145.000000	108.928	144.6795
147.500000	108.867	143.8906
150.000000	108.803	143.1141
152.500000	108.737	142.3533
155.000000	108.669	141.6079
157.500000	108.600	140.8720
160.000000	108.530	140.1368
162.500000	108.459	139.4049
165.000000	108.389	138.6914
167.500000	108.317	138.0109
170.000000	108.245	137.3676
172.500000	108.171	136.7549
175.000000	108.097	136.1633
177.500000	108.024	135.5892
180.000000	107.950	135.0348
182.500000	107.876	134.5042
185.000000	107.803	133.9996
187.500000	107.731	133.5208
190.000000	107.660	133.0643
192.500000	107.592	132.6234
195.000000	107.527	132.1936
197.500000	107.466	131.7773
200.000000	107.407	131.3809
203.000000	107.339	130.9405
206.000000	107.274	130.5459
209.000000	107.212	130.1915
212.000000	107.155	129.8544
214.000000	107.121	129.6260
218.000000	107.062	129.1382
220.000000	107.036	128.8748
224.000000	106.986	128.3090
227.000000	106.949	127.8527
230.000000	106.909	127.3735
233.000000	106.866	126.8829
236.000000	106.819	126.3961
240.000000	106.751	125.7718
243.000000	106.698	125.3240
247.000000	106.627	124.7506
250.000000	106.573	124.3364
254.000000	106.500	123.7996
258.000000	106.427	123.2746
262.000000	106.353	122.7672
265.000000	106.297	122.4050
269.000000	106.224	121.9439
272.000000	106.171	121.6078
276.000000	106.102	121.1719
280.000000	106.037	120.7580
285.000000	105.958	120.2808
290.000000	105.878	119.8463
295.000000	105.800	119.4437
300.000000	105.724	119.0699
304.000000	105.666	118.7920
307.000000	105.623	118.5938
311.000000	105.568	118.3437
315.000000	105.512	118.1128
320.000000	105.444	117.8471
325.000000	105.378	117.5946
330.000000	105.313	117.3495
335.000000	105.250	117.1181
340.000000	105.189	116.8997
345.000000	105.129	116.6879
350.000000	105.070	116.4800
355.000000	105.010	116.2832
360.000000	104.950	116.1135
365.000000	104.892	115.9814
370.000000	104.838	115.8862
375.000000	104.788	115.8212
382.000000	104.722	115.7752
387.000000	104.679	115.7710
395.000000	104.606	115.7789
400.000000	104.558	115.7760
406.000000	104.502	115.7640
412.000000	104.448	115.7487
418.000000	104.396	115.7362
425.000000	104.340	115.7216
431.000000	104.296	115.7025
437.000000	104.255	115.6662
444.000000	104.210	115.5765
450.000000	104.171	115.4459
455.000000	104.138	115.3037
462.000000	104.089	115.0638
468.000000	104.045	114.8267
475.000000	103.995	114.5352
482.000000	103.945	114.2609
487.000000	103.912	114.0908
494.000000	103.869	113.8954
500.000000	103.837	113.7571
508.000000	103.798	113.5871
515.000000	103.763	113.4384
522.000000	103.725	113.2785
530.000000	103.679	113.0666
538.000000	103.632	112.8334
545.000000	103.595	112.6373
552.000000	103.561	112.4633
560.000000	103.525	112.2898
570.000000	103.484	112.0910
580.000000	103.444	111.8920
590.000000	103.404	111.6623
600.000000	103.363	111.3877
608.000000	103.328	111.1599
615.000000	103.299	110.9743
622.000000	103.272	110.8087
630.000000	103.247	110.6428
640.000000	103.222	110.4561
650.000000	103.196	110.2754
660.000000	103.166	110.0837
670.000000	103.137	109.8727
680.000000	103.111	109.6634
690.000000	103.090	109.4826
700.000000	103.072	109.3407
710.000000	103.056	109.2280
720.000000	103.043	109.1374
730.000000	103.035	109.0585
740.000000	103.030	108.9658
750.000000	103.025	108.8375
762.000000	103.019	108.6343
775.000000	103.013	108.3733
788.000000	103.014	108.1064
800.000000	103.023	107.8861
812.000000	103.037	107.6829
825.000000	103.057	107.4639
838.000000	103.081	107.2324
850.000000	103.108	106.9897
862.000000	103.139	106.7008
875.000000	103.176	106.3352
885.000000	103.204	106.0264
900.000000	103.252	105.5475
912.000000	103.299	105.1724
925.000000	103.357	104.7833
938.000000	103.419	104.3965
950.000000	103.478	104.0297
962.000000	103.537	103.6622
975.000000	103.605	103.2837
988.000000	103.678	102.9508
1000.000000	103.751	102.6946
1015.000000	103.850	102.4075
1030.000000	103.952	102.0840
1044.000000	104.044	101.7023
1060.000000	104.146	101.1561
1075.000000	104.246	100.5528
1090.000000	104.353	99.8821
1106.000000	104.470	99.0951
1120.000000	104.569	98.3417
1138.000000	104.692	97.3112
1150.000000	104.772	96.6234
1172.000000	104.921	95.4088
1180.000000	104.974	94.9801
1206.000000	105.135	93.6068
1220.000000	105.215	92.8683
1241.000000	105.330	91.7746
1250.000000	105.379	91.3151
1265.000000	105.460	90.5526
1280.000000	105.537	89.7809
1315.000000	105.702	87.9362
1320.000000	105.725	87.6734
1340.000000	105.814	86.6481
1360.000000	105.902	85.6705
1380.000000	105.986	84.6953
1400.000000	106.065	83.6715
1430.000000	106.169	81.9935
1450.000000	106.237	80.8310
1475.000000	106.324	79.4149
1500.000000	106.418	78.0353
1525.000000	106.512	76.6295
1550.000000	106.605	75.1906
1575.000000	106.705	73.7902
1600.000000	106.813	72.4525
1625.000000	106.919	71.1342
1650.000000	107.025	69.7889
1675.000000	107.134	68.3885
1700.000000	107.240	66.9095
1725.000000	107.341	65.3900
1750.000000	107.446	63.9378
1775.000000	107.559	62.6185
1800.000000	107.671	61.4239
1825.000000	107.781	60.3445
1850.000000	107.894	59.4078
1875.000000	108.012	58.6288
1900.000000	108.133	57.9554
1925.000000	108.252	57.3127
1950.000000	108.370	56.6423
1975.000000	108.487	55.9167
2000.000000	108.602	55.1512
2030.000000	108.743	54.2172
2060.000000	108.888	53.2686
2090.000000	109.033	52.2728
2120.000000	109.178	51.1994
2140.000000	109.277	50.4276
2180.000000	109.470	48.7212
2200.000000	109.563	47.7982
2240.000000	109.748	45.9473
2270.000000	109.890	44.6590
2300.000000	110.034	43.4818
2330.000000	110.177	42.3893
2360.000000	110.317	41.3439
2400.000000	110.501	40.0089
2430.000000	110.639	39.0579
2470.000000	110.823	37.8202
2500.000000	110.959	36.8221
2540.000000	111.131	35.2531
2580.000000	111.291	33.3834
2620.000000	111.444	31.3079
2650.000000	111.553	29.6903
2690.000000	111.692	27.5516
2720.000000	111.791	26.0209
2760.000000	111.920	24.0945
2800.000000	112.039	22.2203
2850.000000	112.168	19.8153
2900.000000	112.279	17.3472
2950.000000	112.374	14.8885
3000.000000	112.455	12.4489
3040.000000	112.506	10.4530
3070.000000	112.535	8.9088
3110.000000	112.562	6.8199
3150.000000	112.580	4.7720
3200.000000	112.595	2.3141
3250.000000	112.597	-0.1030
3300.000000	112.584	-2.5299
3350.000000	112.563	-4.9207
3400.000000	112.533	-7.2485
3450.000000	112.496	-9.4736
3500.000000	112.456	-11.5040
3550.000000	112.414	-13.2855
3600.000000	112.369	-14.8082
3650.000000	112.324	-16.0751
3700.000000	112.281	-17.1625
3750.000000	112.237	-18.2355
3820.000000	112.166	-19.8853
3870.000000	112.116	-21.0482
3950.000000	112.047	-22.6808
4000.000000	112.006	-23.6293
4060.000000	111.962	-24.7361
4120.000000	111.924	-25.8147
4180.000000	111.884	-26.8444
4250.000000	111.836	-27.7601
4310.000000	111.796	-28.1405
4370.000000	111.753	-28.2469
4440.000000	111.696	-28.2900
4500.000000	111.652	-28.4091
4550.000000	111.625	-28.6385
4620.000000	111.609	-29.3027
4680.000000	111.602	-30.3254
4750.000000	111.583	-32.0154
4820.000000	111.547	-33.9536
4870.000000	111.508	-35.3182
4940.000000	111.437	-37.0250
5000.000000	111.365	-38.2150
5080.000000	111.248	-39.4308
5150.000000	111.125	-40.2070
5220.000000	110.984	-40.7756
5300.000000	110.799	-41.3660
5380.000000	110.582	-42.2143
5450.000000	110.363	-43.2957
5520.000000	110.124	-44.6307
5600.000000	109.831	-46.3427
5700.000000	109.442	-48.4275
5800.000000	109.039	-49.7873
5900.000000	108.634	-49.8215
6000.000000	108.228	-48.6875
6080.000000	107.898	-47.3430
6150.000000	107.612	-46.0080
6220.000000	107.334	-44.6392
6300.000000	107.027	-43.2628
6400.000000	106.659	-42.0992
6500.000000	106.317	-41.4164
6600.000000	106.010	-40.9285
6700.000000	105.736	-40.5539
6800.000000	105.497	-40.2404
6900.000000	105.302	-39.8929
7000.000000	105.150	-39.3917
7100.000000	105.042	-38.4513
7200.000000	104.979	-36.9315
7300.000000	104.951	-35.0975
7400.000000	104.953	-33.2243
7500.000000	104.992	-31.4449
7620.000000	105.082	-29.6676
7750.000000	105.231	-28.1336
7880.000000	105.445	-26.3962
8000.000000	105.712	-24.0695
8120.000000	106.052	-21.0037
8250.000000	106.492	-17.3425
8380.000000	106.993	-14.0433
8500.000000	107.482	-12.1112
8620.000000	107.950	-11.9991
8750.000000	108.372	-14.2589
8850.000000	108.598	-17.5081
9000.000000	108.707	-24.2081
9120.000000	108.559	-30.5380
9250.000000	108.152	-37.6042
9380.000000	107.516	-44.2115
9500.000000	106.768	-49.4875
9620.000000	105.916	-53.5377
9750.000000	104.941	-56.0731
9880.000000	103.966	-56.5994
10000.000000	103.095	-55.6346
10150.000000	102.070	-53.0096
10300.000000	101.136	-49.1390
10440.000000	100.353	-44.8163
10600.000000	99.561	-39.6429
10750.000000	98.914	-34.9368
10900.000000	98.360	-30.2967
11060.000000	97.872	-24.9485
11200.000000	97.530	-19.6019
11380.000000	97.198	-12.0748
11500.000000	97.035	-7.1670
11720.000000	96.852	0.6530
11800.000000	96.823	3.0706
12060.000000	96.869	10.0090
12200.000000	96.984	13.8121
12410.000000	97.281	20.2677
12500.000000	97.457	23.2479
12650.000000	97.823	28.3109
12800.000000	98.294	33.4980
13150.000000	99.908	46.5332
13200.000000	100.204	48.3939
13400.000000	101.549	55.0095
13600.000000	103.102	58.8916
13800.000000	104.720	58.5493
14000.000000	106.166	53.2952
14300.000000	107.385	37.9989
14500.000000	107.268	25.8467
14750.000000	106.080	12.1616
15000.000000	104.130	2.9129
15250.000000	101.938	-1.0915
15500.000000	99.935	-0.8673
15750.000000	98.383	2.5020
16000.000000	97.331	8.5210
16250.000000	96.662	16.5765
16500.000000	96.248	25.0717
16750.000000	96.029	31.8217
17000.000000	95.988	36.0547
17250.000000	96.102	38.5471
17500.000000	96.294	40.2352
17750.000000	96.427	40.9678
18000.000000	96.374	40.5715
18250.000000	96.076	39.8703
18500.000000	95.534	39.9191
18750.000000	94.796	41.0343
19000.000000	93.926	42.6633
19250.000000	92.989	44.1118
19500.000000	92.071	45.2133
19750.000000	91.312	46.2352
20000.000000	90.886	47.0621
