* Measurement data measured by REW V5.20.13
* Source: Microphone (2- USB Audio Device), MICROPHONE (Master Volume), L, volume: 0.250. Timing signal peak level -33.2 dBFS, measurement signal peak level -30.5 dBFS
* Format: 256k Log Swept Sine, 1 sweep at -12.0 dBFS using an acoustic timing reference
* Dated: 04-May-2023 14:44:11
* REW Settings:
*  C-weighting compensation: Off
*  Target level: 75.0 dB
* Note: 
* Measurement: Earfun Air Pro 3
* Smoothing: 1/12 octave
* Frequency Step: 1/48 octave
* Start Frequency: 20.000 Hz
*
* Freq(Hz)	SPL(dB)	Phase(degrees)
20.000000	75.871	-140.1697
20.299999	75.905	-140.9847
20.600000	75.934	-141.7439
20.900000	75.957	-142.4606
21.200001	75.972	-143.1493
21.400000	75.977	-143.5970
21.799999	75.976	-144.4724
22.000000	75.972	-144.9054
22.400000	75.956	-145.7770
22.700001	75.940	-146.4493
23.000000	75.922	-147.1456
23.299999	75.901	-147.8622
23.600000	75.880	-148.5930
24.000000	75.854	-149.5828
24.299999	75.839	-150.3405
24.700001	75.830	-151.3853
25.000000	75.829	-152.2021
25.400000	75.835	-153.3290
25.799999	75.845	-154.4676
26.200001	75.857	-155.5761
26.500000	75.869	-156.3695
26.900000	75.890	-157.3689
27.200001	75.908	-158.0769
27.600000	75.935	-158.9727
28.000000	75.962	-159.8199
28.500000	75.990	-160.8124
29.000000	76.010	-161.7288
29.500000	76.022	-162.5786
30.000000	76.029	-163.3987
30.400000	76.030	-164.0658
30.700001	76.026	-164.5828
31.100000	76.015	-165.2917
31.500000	75.997	-166.0080
32.000000	75.968	-166.8898
32.500000	75.942	-167.7541
33.000000	75.923	-168.6269
33.500000	75.911	-169.5290
34.000000	75.901	-170.4532
34.500000	75.893	-171.3738
35.000000	75.886	-172.2706
35.500000	75.880	-173.1348
36.000000	75.875	-173.9645
36.500000	75.870	-174.7617
37.000000	75.864	-175.5323
37.500000	75.855	-176.2828
38.200001	75.831	-177.3019
38.700001	75.806	-178.0007
39.500000	75.762	-179.0670
40.000000	75.736	-179.7216
40.599998	75.708	179.4742
41.200001	75.682	178.6361
41.799999	75.655	177.7792
42.500000	75.620	176.7888
43.099998	75.589	175.9633
43.700001	75.557	175.1611
44.400002	75.517	174.2581
45.000000	75.481	173.5174
45.500000	75.451	172.9213
46.200001	75.411	172.0998
46.799999	75.377	171.3885
47.500000	75.336	170.5507
48.200001	75.296	169.7275
48.700001	75.269	169.1527
49.400002	75.233	168.3530
50.000000	75.198	167.6680
50.799999	75.138	166.7748
51.500000	75.078	166.0226
52.200001	75.016	165.2908
53.000000	74.947	164.4769
53.799999	74.881	163.6842
54.500000	74.827	162.9899
55.200001	74.773	162.2881
56.000000	74.708	161.4981
57.000000	74.627	160.5586
58.000000	74.545	159.6677
59.000000	74.461	158.8367
60.000000	74.377	158.0752
60.799999	74.312	157.4904
61.500000	74.255	156.9773
62.200001	74.198	156.4598
63.000000	74.132	155.8675
64.000000	74.049	155.1292
65.000000	73.966	154.3929
66.000000	73.882	153.6711
67.000000	73.796	152.9736
68.000000	73.707	152.2903
69.000000	73.611	151.6110
70.000000	73.509	150.9398
71.000000	73.405	150.2858
72.000000	73.303	149.6609
73.000000	73.208	149.0717
74.000000	73.121	148.5048
75.000000	73.038	147.9435
76.199997	72.939	147.2637
77.500000	72.822	146.5184
78.800003	72.695	145.7765
80.000000	72.572	145.1083
81.199997	72.450	144.4672
82.500000	72.325	143.8000
83.800003	72.211	143.1456
85.000000	72.112	142.5248
86.199997	72.009	141.8909
87.500000	71.887	141.2274
88.500000	71.788	140.7463
90.000000	71.631	140.0869
91.199997	71.502	139.6296
92.500000	71.365	139.1937
93.800003	71.230	138.8010
95.000000	71.110	138.4595
96.199997	70.994	138.1090
97.500000	70.867	137.7107
98.800003	70.734	137.3254
100.000000	70.609	137.0091
101.500000	70.449	136.6851
103.000000	70.285	136.4777
104.400002	70.132	136.4388
106.000000	69.974	136.5782
107.500000	69.854	136.7835
109.000000	69.759	136.9370
110.599998	69.674	136.9709
112.000000	69.598	136.8858
113.800003	69.488	136.6615
115.000000	69.402	136.4797
117.199997	69.229	136.1562
118.000000	69.163	136.0519
120.599998	68.957	135.8386
122.000000	68.856	135.8492
124.099998	68.725	136.0020
125.000000	68.675	136.0822
126.500000	68.591	136.1855
128.000000	68.503	136.2176
131.500000	68.269	136.0699
132.000000	68.234	136.0486
134.000000	68.101	135.9939
136.000000	67.975	135.9675
138.000000	67.842	135.9646
140.000000	67.700	135.9897
143.000000	67.487	136.0475
145.000000	67.353	136.1047
147.500000	67.190	136.2502
150.000000	67.030	136.4777
152.500000	66.876	136.7320
155.000000	66.724	137.0295
157.500000	66.570	137.4550
160.000000	66.422	137.9753
162.500000	66.287	138.4697
165.000000	66.170	138.9158
167.500000	66.072	139.3627
170.000000	65.987	139.8269
172.500000	65.907	140.2763
175.000000	65.823	140.6912
177.500000	65.730	141.0922
180.000000	65.629	141.4956
182.500000	65.520	141.8969
185.000000	65.400	142.2966
187.500000	65.268	142.6984
190.000000	65.129	143.0891
192.500000	64.995	143.4553
195.000000	64.877	143.8099
197.500000	64.782	144.1932
200.000000	64.707	144.6310
203.000000	64.640	145.1916
206.000000	64.586	145.7039
209.000000	64.535	146.1561
212.000000	64.484	146.6058
214.000000	64.449	146.9204
218.000000	64.373	147.5676
220.000000	64.331	147.8892
224.000000	64.239	148.5232
227.000000	64.163	148.9847
230.000000	64.082	149.4297
233.000000	64.005	149.8676
236.000000	63.940	150.2985
240.000000	63.871	150.8263
243.000000	63.824	151.1795
247.000000	63.763	151.6335
250.000000	63.714	151.9832
254.000000	63.651	152.4586
258.000000	63.593	152.9396
262.000000	63.539	153.4276
265.000000	63.502	153.7780
269.000000	63.455	154.1941
272.000000	63.421	154.4703
276.000000	63.378	154.8541
280.000000	63.335	155.3251
285.000000	63.275	156.0073
290.000000	63.215	156.7010
295.000000	63.161	157.3776
300.000000	63.118	158.0837
304.000000	63.091	158.6693
307.000000	63.072	159.1002
311.000000	63.048	159.6475
315.000000	63.026	160.1644
320.000000	62.999	160.8049
325.000000	62.976	161.4485
330.000000	62.957	162.0342
335.000000	62.938	162.5585
340.000000	62.909	163.0432
345.000000	62.876	163.4747
350.000000	62.849	163.8878
355.000000	62.826	164.3346
360.000000	62.803	164.8152
365.000000	62.783	165.2984
370.000000	62.765	165.7614
375.000000	62.747	166.2023
382.000000	62.724	166.7786
387.000000	62.710	167.1498
395.000000	62.696	167.6908
400.000000	62.691	168.0129
406.000000	62.683	168.4076
412.000000	62.672	168.8072
418.000000	62.656	169.1945
425.000000	62.637	169.6536
431.000000	62.622	170.0586
437.000000	62.607	170.4671
444.000000	62.592	170.9731
450.000000	62.586	171.3947
455.000000	62.584	171.6898
462.000000	62.578	171.9828
468.000000	62.568	172.1325
475.000000	62.557	172.2532
482.000000	62.549	172.3939
487.000000	62.544	172.5132
494.000000	62.532	172.6655
500.000000	62.521	172.7482
508.000000	62.510	172.7857
515.000000	62.503	172.7783
522.000000	62.497	172.7471
530.000000	62.485	172.6884
538.000000	62.468	172.6080
545.000000	62.451	172.5340
552.000000	62.434	172.4891
560.000000	62.416	172.4806
570.000000	62.394	172.5117
580.000000	62.379	172.6068
590.000000	62.371	172.6932
600.000000	62.361	172.6530
608.000000	62.346	172.5652
615.000000	62.331	172.4684
622.000000	62.314	172.3481
630.000000	62.296	172.2098
640.000000	62.272	172.0978
650.000000	62.249	172.0266
660.000000	62.226	171.9207
670.000000	62.190	171.8093
680.000000	62.142	171.7978
690.000000	62.100	171.8970
700.000000	62.075	172.0707
710.000000	62.060	172.2548
720.000000	62.047	172.3391
730.000000	62.030	172.2780
740.000000	62.009	172.1398
750.000000	61.982	172.0098
762.000000	61.942	171.8743
775.000000	61.894	171.7371
788.000000	61.844	171.6844
800.000000	61.792	171.7391
812.000000	61.725	171.8502
825.000000	61.643	172.0228
838.000000	61.557	172.2693
850.000000	61.473	172.5580
862.000000	61.383	172.8951
875.000000	61.284	173.3037
885.000000	61.212	173.6670
900.000000	61.113	174.3423
912.000000	61.038	174.9920
925.000000	60.956	175.7501
938.000000	60.877	176.4944
950.000000	60.807	177.1342
962.000000	60.742	177.7548
975.000000	60.674	178.4803
988.000000	60.606	179.3091
1000.000000	60.552	-179.8318
1015.000000	60.512	-178.6481
1030.000000	60.500	-177.4103
1044.000000	60.503	-176.2561
1060.000000	60.516	-174.9141
1075.000000	60.543	-173.6255
1090.000000	60.585	-172.3510
1106.000000	60.641	-171.0771
1120.000000	60.700	-170.0648
1138.000000	60.788	-168.8831
1150.000000	60.849	-168.1617
1172.000000	60.973	-166.9872
1180.000000	61.028	-166.6102
1206.000000	61.248	-165.5123
1220.000000	61.382	-164.9659
1241.000000	61.589	-164.2006
1250.000000	61.680	-163.8942
1265.000000	61.836	-163.4188
1280.000000	61.996	-162.9864
1315.000000	62.353	-162.0377
1320.000000	62.397	-161.8961
1340.000000	62.547	-161.3108
1360.000000	62.652	-160.7195
1380.000000	62.724	-160.1284
1400.000000	62.787	-159.5275
1430.000000	62.898	-158.5563
1450.000000	62.987	-157.8555
1475.000000	63.121	-156.9877
1500.000000	63.286	-156.2006
1525.000000	63.476	-155.4764
1550.000000	63.681	-154.7858
1575.000000	63.892	-154.1422
1600.000000	64.107	-153.5884
1625.000000	64.317	-153.1370
1650.000000	64.516	-152.7690
1675.000000	64.711	-152.4684
1700.000000	64.910	-152.1854
1725.000000	65.110	-151.8871
1750.000000	65.306	-151.5372
1775.000000	65.496	-151.0432
1800.000000	65.689	-150.3423
1825.000000	65.885	-149.4476
1850.000000	66.079	-148.4436
1875.000000	66.272	-147.4297
1900.000000	66.460	-146.4609
1925.000000	66.639	-145.5832
1950.000000	66.808	-144.8541
1975.000000	66.966	-144.3063
2000.000000	67.111	-143.9204
2030.000000	67.266	-143.5753
2060.000000	67.408	-143.2321
2090.000000	67.546	-142.8171
2120.000000	67.682	-142.3226
2140.000000	67.766	-141.9515
2180.000000	67.911	-141.0672
2200.000000	67.979	-140.5114
2240.000000	68.130	-139.0530
2270.000000	68.275	-137.6597
2300.000000	68.457	-136.1664
2330.000000	68.681	-134.8153
2360.000000	68.933	-133.8331
2400.000000	69.254	-133.2166
2430.000000	69.444	-133.1422
2470.000000	69.612	-133.2715
2500.000000	69.684	-133.4032
2540.000000	69.730	-133.5383
2580.000000	69.739	-133.5967
2620.000000	69.719	-133.5787
2650.000000	69.686	-133.5272
2690.000000	69.620	-133.4055
2720.000000	69.555	-133.2484
2760.000000	69.454	-132.8824
2800.000000	69.344	-132.2591
2850.000000	69.200	-131.0154
2900.000000	69.057	-129.2186
2950.000000	68.939	-126.9507
3000.000000	68.858	-124.3745
3040.000000	68.827	-122.1374
3070.000000	68.828	-120.3486
3110.000000	68.858	-117.8080
3150.000000	68.917	-115.1075
3200.000000	69.033	-111.5736
3250.000000	69.195	-107.9808
3300.000000	69.390	-104.4862
3350.000000	69.605	-101.1954
3400.000000	69.825	-98.1564
3450.000000	70.034	-95.4084
3500.000000	70.227	-92.9827
3550.000000	70.399	-90.8789
3600.000000	70.552	-89.0607
3650.000000	70.690	-87.4464
3700.000000	70.816	-85.9108
3750.000000	70.934	-84.2955
3820.000000	71.083	-81.6762
3870.000000	71.177	-79.5630
3950.000000	71.300	-76.0265
4000.000000	71.363	-73.8373
4060.000000	71.426	-71.3745
4120.000000	71.473	-69.2355
4180.000000	71.511	-67.5181
4250.000000	71.549	-66.2097
4310.000000	71.574	-65.7690
4370.000000	71.601	-65.8347
4440.000000	71.650	-66.2698
4500.000000	71.717	-66.8066
4550.000000	71.790	-67.3707
4620.000000	71.905	-68.4766
4680.000000	71.997	-69.8492
4750.000000	72.087	-71.9092
4820.000000	72.160	-74.2365
4870.000000	72.199	-75.9579
4940.000000	72.227	-78.3674
5000.000000	72.221	-80.3501
5080.000000	72.163	-82.8247
5150.000000	72.051	-84.9984
5220.000000	71.869	-87.3910
5300.000000	71.583	-90.3857
5380.000000	71.232	-93.4051
5450.000000	70.885	-95.8478
5520.000000	70.516	-98.0051
5600.000000	70.079	-100.1313
5700.000000	69.511	-102.2290
5800.000000	68.913	-103.4092
5900.000000	68.300	-103.5487
6000.000000	67.686	-102.9479
6080.000000	67.195	-102.2041
6150.000000	66.768	-101.4351
6220.000000	66.346	-100.4901
6300.000000	65.878	-99.0382
6400.000000	65.317	-96.4870
6500.000000	64.785	-93.1061
6600.000000	64.284	-89.0251
6700.000000	63.826	-84.5078
6800.000000	63.429	-79.7054
6900.000000	63.143	-74.3554
7000.000000	63.063	-68.0636
7100.000000	63.301	-60.8452
7200.000000	63.926	-53.3767
7300.000000	64.886	-46.7563
7400.000000	66.036	-41.9537
7500.000000	67.229	-39.3241
7620.000000	68.590	-38.6431
7750.000000	69.917	-40.0306
7880.000000	71.097	-42.8536
8000.000000	72.079	-46.5901
8120.000000	72.947	-51.8604
8250.000000	73.670	-60.1304
8380.000000	74.019	-71.3270
8500.000000	73.889	-83.2589
8620.000000	73.273	-94.9957
8750.000000	72.102	-105.6965
8850.000000	70.929	-111.7809
9000.000000	68.918	-117.1270
9120.000000	67.240	-118.5654
9250.000000	65.468	-118.1136
9380.000000	63.805	-116.4905
9500.000000	62.388	-114.5317
9620.000000	61.091	-112.2455
9750.000000	59.822	-109.2400
9880.000000	58.681	-105.5181
10000.000000	57.721	-101.4423
10150.000000	56.617	-95.7947
10300.000000	55.601	-90.0417
10440.000000	54.721	-84.9286
10600.000000	53.780	-79.5307
10750.000000	52.942	-74.8293
10900.000000	52.147	-70.4841
11060.000000	51.380	-66.1522
11200.000000	50.799	-62.4010
11380.000000	50.165	-57.4612
11500.000000	49.806	-54.0525
11720.000000	49.271	-47.5643
11800.000000	49.110	-45.1808
12060.000000	48.700	-37.1893
12200.000000	48.561	-32.5076
12410.000000	48.473	-25.4097
12500.000000	48.477	-22.6282
12650.000000	48.538	-18.5088
12800.000000	48.663	-14.7177
13150.000000	49.179	-4.5090
13200.000000	49.276	-2.8492
13400.000000	49.733	3.8026
13600.000000	50.379	9.8605
13800.000000	51.335	14.9516
14000.000000	52.642	19.0435
14300.000000	55.127	22.2748
14500.000000	56.892	20.5034
14750.000000	58.745	10.9633
15000.000000	59.675	-7.0959
15250.000000	59.348	-28.1760
15500.000000	57.855	-44.7851
15750.000000	55.617	-54.6312
16000.000000	53.166	-60.4023
16250.000000	50.991	-67.2808
16500.000000	49.427	-84.5859
16750.000000	48.556	-129.8996
17000.000000	48.233	137.2661
17250.000000	48.204	-1.5847
17500.000000	48.167	171.4858
17750.000000	47.861	-142.3907
18000.000000	47.130	-54.1597
18250.000000	45.953	54.6445
18500.000000	44.504	-43.3237
18750.000000	43.147	-114.0693
19000.000000	42.284	-96.8555
19250.000000	41.996	-42.9043
19500.000000	41.960	-62.9980
19750.000000	41.864	-69.2969
