* Measurement data measured by REW V5.20.13
* Source: Microphone (2- USB Audio Device), MICROPHONE (Master Volume), L, volume: 0.250. Timing signal peak level -33.3 dBFS, measurement signal peak level -29.5 dBFS
* Format: 256k Log Swept Sine, 1 sweep at -12.0 dBFS using an acoustic timing reference
* Dated: 04-May-2023 14:43:41
* REW Settings:
*  C-weighting compensation: Off
*  Target level: 75.0 dB
* Note: 
* Measurement: Earfun Air Pro 3
* Smoothing: 1/12 octave
* Frequency Step: 1/48 octave
* Start Frequency: 20.000 Hz
*
* Freq(Hz)	SPL(dB)	Phase(degrees)
20.000000	79.436	-134.2722
20.299999	79.511	-135.2462
20.600000	79.555	-136.5033
20.900000	79.546	-137.8970
21.200001	79.477	-139.1832
21.400000	79.412	-139.8545
21.799999	79.281	-140.7242
22.000000	79.240	-140.9891
22.400000	79.243	-141.5250
22.700001	79.303	-142.2797
23.000000	79.365	-143.5303
23.299999	79.379	-145.1402
23.600000	79.325	-146.8004
24.000000	79.165	-148.5359
24.299999	79.038	-149.2240
24.700001	78.964	-149.5095
25.000000	79.014	-149.7178
25.400000	79.176	-150.6505
25.799999	79.310	-152.5729
26.200001	79.300	-154.9128
26.500000	79.189	-156.3106
26.900000	78.977	-157.0928
27.200001	78.862	-156.8361
27.600000	78.875	-155.9127
28.000000	79.087	-155.3682
28.500000	79.436	-156.3521
29.000000	79.614	-158.9039
29.500000	79.533	-161.5394
30.000000	79.306	-162.9011
30.400000	79.159	-162.9801
30.700001	79.127	-162.7472
31.100000	79.198	-162.6118
31.500000	79.346	-163.1143
32.000000	79.517	-164.8362
32.500000	79.566	-167.3251
33.000000	79.464	-169.7275
33.500000	79.263	-171.3817
34.000000	79.061	-172.0792
34.500000	78.953	-172.1299
35.000000	78.973	-172.0724
35.500000	79.087	-172.4003
36.000000	79.233	-173.3401
36.500000	79.352	-174.8840
37.000000	79.396	-176.8512
37.500000	79.335	-178.9199
38.200001	79.074	178.8740
38.700001	78.824	178.2887
39.500000	78.551	178.9174
40.000000	78.542	179.5477
40.599998	78.658	179.7714
41.200001	78.810	179.1865
41.799999	78.930	178.0278
42.500000	79.007	176.3598
43.099998	79.029	174.8629
43.700001	79.020	173.3741
44.400002	78.981	171.6451
45.000000	78.925	170.1298
45.500000	78.854	168.8473
46.200001	78.707	167.1520
46.799999	78.542	165.9897
47.500000	78.348	165.1415
48.200001	78.208	164.7316
48.700001	78.156	164.5246
49.400002	78.130	164.1346
50.000000	78.119	163.6774
50.799999	78.093	163.0182
51.500000	78.065	162.4437
52.200001	78.035	161.7997
53.000000	77.983	160.9406
53.799999	77.907	160.0317
54.500000	77.835	159.2224
55.200001	77.767	158.3300
56.000000	77.692	157.1410
57.000000	77.590	155.5104
58.000000	77.491	153.9462
59.000000	77.405	152.5681
60.000000	77.333	151.5159
60.799999	77.297	150.9250
61.500000	77.280	150.4975
62.200001	77.265	150.0916
63.000000	77.244	149.6351
64.000000	77.210	148.9922
65.000000	77.158	148.1304
66.000000	77.072	147.0745
67.000000	76.955	145.9750
68.000000	76.823	144.9915
69.000000	76.706	144.2030
70.000000	76.622	143.5200
71.000000	76.561	142.8153
72.000000	76.499	142.0728
73.000000	76.419	141.3652
74.000000	76.327	140.7343
75.000000	76.234	140.1064
76.199997	76.120	139.2278
77.500000	75.985	138.1226
78.800003	75.840	136.9869
80.000000	75.706	136.0309
81.199997	75.578	135.1881
82.500000	75.446	134.3674
83.800003	75.319	133.5925
85.000000	75.205	132.8444
86.199997	75.091	132.0209
87.500000	74.966	131.0617
88.500000	74.868	130.3079
90.000000	74.716	129.2880
91.199997	74.598	128.6423
92.500000	74.480	128.0681
93.800003	74.364	127.5488
95.000000	74.254	127.0787
96.199997	74.136	126.5934
97.500000	74.001	126.0381
98.800003	73.861	125.4604
100.000000	73.732	124.9052
101.500000	73.577	124.1691
103.000000	73.423	123.4260
104.400002	73.276	122.8184
106.000000	73.111	122.3401
107.500000	72.970	122.1139
109.000000	72.853	121.9744
110.599998	72.743	121.7369
112.000000	72.644	121.4238
113.800003	72.513	120.9391
115.000000	72.426	120.5807
117.199997	72.271	119.8673
118.000000	72.218	119.5829
120.599998	72.043	118.5251
122.000000	71.943	117.9456
124.099998	71.793	117.1970
125.000000	71.729	116.9256
126.500000	71.621	116.5259
128.000000	71.509	116.1576
131.500000	71.226	115.2270
132.000000	71.183	115.0836
134.000000	71.018	114.5034
136.000000	70.862	113.9117
138.000000	70.707	113.3411
140.000000	70.549	112.8582
143.000000	70.317	112.3348
145.000000	70.163	112.0917
147.500000	69.960	111.9161
150.000000	69.756	111.9740
152.500000	69.589	112.2456
155.000000	69.474	112.5909
157.500000	69.401	112.8257
160.000000	69.349	112.8629
162.500000	69.297	112.6949
165.000000	69.216	112.4491
167.500000	69.102	112.3118
170.000000	68.978	112.2543
172.500000	68.861	112.1256
175.000000	68.758	111.9008
177.500000	68.667	111.6685
180.000000	68.578	111.4849
182.500000	68.476	111.2938
185.000000	68.347	111.0795
187.500000	68.199	110.9023
190.000000	68.050	110.7955
192.500000	67.915	110.7799
195.000000	67.801	110.8376
197.500000	67.706	110.9200
200.000000	67.629	110.9532
203.000000	67.553	110.8602
206.000000	67.481	110.7512
209.000000	67.419	110.7310
212.000000	67.366	110.6841
214.000000	67.329	110.6261
218.000000	67.247	110.5591
220.000000	67.203	110.5527
224.000000	67.098	110.5341
227.000000	67.006	110.5251
230.000000	66.924	110.5332
233.000000	66.866	110.4969
236.000000	66.820	110.3163
240.000000	66.744	109.8732
243.000000	66.666	109.5496
247.000000	66.552	109.2013
250.000000	66.474	108.9622
254.000000	66.391	108.7171
258.000000	66.325	108.6018
262.000000	66.265	108.5220
265.000000	66.225	108.4365
269.000000	66.188	108.3051
272.000000	66.172	108.2219
276.000000	66.150	108.1414
280.000000	66.105	108.0602
285.000000	66.010	107.8566
290.000000	65.912	107.4836
295.000000	65.850	107.1233
300.000000	65.806	106.9694
304.000000	65.769	106.8880
307.000000	65.739	106.7722
311.000000	65.699	106.5377
315.000000	65.658	106.2493
320.000000	65.610	105.9202
325.000000	65.568	105.6868
330.000000	65.526	105.4592
335.000000	65.483	105.1672
340.000000	65.447	104.8335
345.000000	65.423	104.4993
350.000000	65.400	104.1428
355.000000	65.367	103.7463
360.000000	65.328	103.3250
365.000000	65.291	102.9155
370.000000	65.255	102.5441
375.000000	65.217	102.1942
382.000000	65.170	101.6530
387.000000	65.146	101.2293
395.000000	65.116	100.5814
400.000000	65.093	100.2133
406.000000	65.060	99.7842
412.000000	65.025	99.3356
418.000000	64.994	98.8347
425.000000	64.968	98.2263
431.000000	64.954	97.7225
437.000000	64.941	97.2216
444.000000	64.916	96.6119
450.000000	64.884	96.0547
455.000000	64.853	95.5764
462.000000	64.807	94.9168
468.000000	64.772	94.3441
475.000000	64.740	93.5865
482.000000	64.714	92.7162
487.000000	64.695	92.0674
494.000000	64.671	91.1743
500.000000	64.652	90.4392
508.000000	64.626	89.4982
515.000000	64.599	88.6816
522.000000	64.570	87.8295
530.000000	64.542	86.7998
538.000000	64.517	85.7316
545.000000	64.493	84.7705
552.000000	64.467	83.7756
560.000000	64.434	82.6098
570.000000	64.384	81.1536
580.000000	64.331	79.7166
590.000000	64.280	78.2849
600.000000	64.225	76.9158
608.000000	64.183	75.9120
615.000000	64.152	75.0742
622.000000	64.127	74.2388
630.000000	64.106	73.2505
640.000000	64.090	71.8878
650.000000	64.083	70.3186
660.000000	64.077	68.5817
670.000000	64.062	66.8090
680.000000	64.028	65.0970
690.000000	63.983	63.4712
700.000000	63.938	61.8893
710.000000	63.889	60.3038
720.000000	63.829	58.7551
730.000000	63.762	57.2733
740.000000	63.702	55.8339
750.000000	63.650	54.4128
762.000000	63.588	52.7025
775.000000	63.512	50.7941
788.000000	63.434	48.8543
800.000000	63.357	47.1222
812.000000	63.271	45.4282
825.000000	63.167	43.6257
838.000000	63.061	41.9295
850.000000	62.970	40.4681
862.000000	62.890	39.1027
875.000000	62.807	37.7427
885.000000	62.742	36.7575
900.000000	62.640	35.3049
912.000000	62.559	34.1442
925.000000	62.474	32.9166
938.000000	62.395	31.7412
950.000000	62.330	30.6743
962.000000	62.272	29.6188
975.000000	62.215	28.5111
988.000000	62.159	27.4329
1000.000000	62.110	26.4383
1015.000000	62.061	25.1968
1030.000000	62.028	23.9797
1044.000000	62.013	22.8145
1060.000000	62.015	21.4224
1075.000000	62.023	20.1161
1090.000000	62.032	18.7817
1106.000000	62.054	17.2609
1120.000000	62.095	15.8597
1138.000000	62.182	14.0480
1150.000000	62.256	12.8619
1172.000000	62.408	10.7175
1180.000000	62.467	9.9257
1206.000000	62.668	7.2189
1220.000000	62.786	5.6692
1241.000000	62.979	3.2410
1250.000000	63.068	2.1711
1265.000000	63.225	0.3586
1280.000000	63.391	-1.4913
1315.000000	63.758	-6.0051
1320.000000	63.802	-6.6700
1340.000000	63.951	-9.3268
1360.000000	64.062	-11.9067
1380.000000	64.147	-14.3887
1400.000000	64.225	-16.8217
1430.000000	64.368	-20.5591
1450.000000	64.489	-23.2233
1475.000000	64.663	-26.7532
1500.000000	64.860	-30.4434
1525.000000	65.078	-34.1591
1550.000000	65.306	-37.7576
1575.000000	65.536	-41.2429
1600.000000	65.762	-44.7264
1625.000000	65.984	-48.2941
1650.000000	66.207	-51.9639
1675.000000	66.440	-55.7448
1700.000000	66.676	-59.6864
1725.000000	66.908	-63.8722
1750.000000	67.127	-68.2913
1775.000000	67.336	-72.8442
1800.000000	67.547	-77.4913
1825.000000	67.758	-82.2743
1850.000000	67.958	-87.2324
1875.000000	68.147	-92.3580
1900.000000	68.330	-97.5910
1925.000000	68.515	-102.8597
1950.000000	68.699	-108.1313
1975.000000	68.877	-113.4207
2000.000000	69.041	-118.7596
2030.000000	69.225	-125.2288
2060.000000	69.398	-131.7375
2090.000000	69.560	-138.2942
2120.000000	69.711	-144.9053
2140.000000	69.805	-149.3282
2180.000000	69.977	-158.0903
2200.000000	70.056	-162.3562
2240.000000	70.222	-170.5439
2270.000000	70.382	-176.4580
2300.000000	70.598	177.6237
2330.000000	70.867	171.4652
2360.000000	71.152	164.8912
2400.000000	71.482	155.4596
2430.000000	71.662	148.0232
2470.000000	71.817	137.8754
2500.000000	71.883	130.2357
2540.000000	71.918	120.2050
2580.000000	71.903	110.5242
2620.000000	71.854	101.2163
2650.000000	71.810	94.3132
2690.000000	71.745	84.9255
2720.000000	71.677	77.7424
2760.000000	71.545	68.2366
2800.000000	71.379	59.1635
2850.000000	71.187	48.5370
2900.000000	71.029	38.2706
2950.000000	70.877	28.2281
3000.000000	70.735	18.5338
3040.000000	70.644	11.0623
3070.000000	70.595	5.6232
3110.000000	70.555	-1.4408
3150.000000	70.539	-8.3899
3200.000000	70.545	-17.1235
3250.000000	70.577	-26.0682
3300.000000	70.637	-35.2622
3350.000000	70.719	-44.7699
3400.000000	70.805	-54.7275
3450.000000	70.879	-65.2102
3500.000000	70.933	-76.1560
3550.000000	70.975	-87.3892
3600.000000	71.010	-98.7086
3650.000000	71.044	-109.9673
3700.000000	71.084	-121.1060
3750.000000	71.131	-132.1260
3820.000000	71.199	-147.3563
3870.000000	71.243	-158.0392
3950.000000	71.317	-174.7288
4000.000000	71.364	175.0056
4060.000000	71.415	162.7646
4120.000000	71.463	150.5632
4180.000000	71.508	138.3241
4250.000000	71.558	123.8193
4310.000000	71.605	111.0004
4370.000000	71.654	97.6636
4440.000000	71.726	81.4506
4500.000000	71.811	67.1997
4550.000000	71.905	55.2390
4620.000000	72.063	38.4612
4680.000000	72.207	23.9767
4750.000000	72.359	6.8314
4820.000000	72.484	-10.5690
4870.000000	72.552	-23.1090
4940.000000	72.612	-40.7828
5000.000000	72.625	-55.9966
5080.000000	72.586	-76.2860
5150.000000	72.493	-94.0540
5220.000000	72.338	-111.9417
5300.000000	72.079	-132.5923
5380.000000	71.742	-153.2933
5450.000000	71.394	-171.2180
5520.000000	71.004	171.1597
5600.000000	70.515	151.5023
5700.000000	69.860	127.8619
5800.000000	69.184	105.1609
5900.000000	68.505	83.2000
6000.000000	67.847	62.2629
6080.000000	67.340	46.4001
6150.000000	66.904	33.0471
6220.000000	66.478	19.9795
6300.000000	66.009	5.1013
6400.000000	65.452	-13.7864
6500.000000	64.922	-32.9646
6600.000000	64.430	-51.9519
6700.000000	63.999	-70.4041
6800.000000	63.662	-88.1931
6900.000000	63.470	-105.3093
7000.000000	63.486	-121.9526
7100.000000	63.782	-138.4980
7200.000000	64.387	-155.4414
7300.000000	65.241	-173.3452
7400.000000	66.237	167.2407
7500.000000	67.269	145.8599
7620.000000	68.421	117.3665
7750.000000	69.480	83.6426
7880.000000	70.391	48.1328
8000.000000	71.193	14.2930
8120.000000	72.005	-20.7512
8250.000000	72.875	-60.6748
8380.000000	73.613	-103.2144
8500.000000	74.003	-144.8608
8620.000000	73.957	172.1326
8750.000000	73.336	126.1348
8850.000000	72.480	92.5168
9000.000000	70.729	46.0249
9120.000000	69.091	12.1807
9250.000000	67.249	-21.5886
9380.000000	65.464	-53.0518
9500.000000	63.934	-80.8540
9620.000000	62.537	-108.1077
9750.000000	61.171	-137.3359
9880.000000	59.941	-166.2722
10000.000000	58.912	167.3770
10150.000000	57.756	135.1584
10300.000000	56.725	103.9492
10440.000000	55.850	75.6660
10600.000000	54.938	43.9983
10750.000000	54.173	14.5137
10900.000000	53.497	-15.2605
11060.000000	52.850	-47.5979
11200.000000	52.336	-76.1660
11380.000000	51.778	-112.8394
11500.000000	51.486	-137.2437
11720.000000	51.108	177.5928
11800.000000	51.013	160.9089
12060.000000	50.840	105.8303
12200.000000	50.820	75.8208
12410.000000	50.917	30.4775
12500.000000	51.016	10.9622
12650.000000	51.254	-21.6716
12800.000000	51.556	-54.5820
13150.000000	52.298	-134.4175
13200.000000	52.395	-146.3496
13400.000000	52.790	164.6006
13600.000000	53.336	113.8472
13800.000000	54.187	61.5415
14000.000000	55.383	7.1836
14300.000000	57.637	-79.8296
14500.000000	59.153	-142.4692
14750.000000	60.563	133.5178
15000.000000	60.961	45.0142
15250.000000	60.137	-42.1255
15500.000000	58.285	-121.9888
15750.000000	55.837	167.5693
16000.000000	53.302	104.5962
16250.000000	51.146	38.0381
16500.000000	49.590	-55.6875
16750.000000	48.638	166.2871
17000.000000	48.217	-0.1436
17250.000000	48.184	176.4707
17500.000000	48.330	-38.2188
17750.000000	48.412	86.1519
18000.000000	48.185	-152.6592
18250.000000	47.519	-91.5200
18500.000000	46.469	62.6021
18750.000000	45.258	-59.2212
19000.000000	44.171	-139.0059
19250.000000	43.360	32.4727
19500.000000	42.810	96.7988
19750.000000	42.423	-41.7305
