* Measurement data measured by REW V5.31.3
* Source: Microphone (4- USB Audio Device), MICROPHONE (Master Volume), R, volume: 0.250
* Format: 256k Log Swept Sine, 1 sweep at -12.0 dBFS with no timing reference
* Dated: 01-Sep-2024 16:21:53
* REW Settings:
*  C-weighting compensation: Off
*  Target level: 75.0 dB
* Note: 
* Measurement: FIIL GS Bass L
* Smoothing: 1/12 octave
* Frequency Step: 1/48 octave
* Start Frequency: 20.300 Hz
*
* Freq(Hz)	SPL(dB)	Phase(degrees)
20.299999	56.925	-173.6880
20.600000	57.162	-172.2562
20.900000	57.565	-170.6760
21.200001	58.096	-169.6272
21.400000	58.479	-169.4360
21.799999	59.186	-170.3133
22.000000	59.468	-171.2375
22.400000	59.847	-173.5180
22.700001	59.984	-175.1802
23.000000	60.043	-176.5079
23.299999	60.086	-177.3948
23.600000	60.174	-177.8967
24.000000	60.428	-178.2850
24.299999	60.723	-178.6067
24.700001	61.202	-179.2304
25.000000	61.583	-179.7871
25.400000	62.071	179.5396
25.799999	62.512	179.0967
26.200001	62.900	178.8880
26.500000	63.160	178.7974
26.900000	63.470	178.5939
27.200001	63.680	178.2759
27.600000	63.934	177.5467
28.000000	64.165	176.4876
28.500000	64.431	174.9224
29.000000	64.688	173.4807
29.500000	64.952	172.4890
30.000000	65.230	171.9767
30.400000	65.456	171.7590
30.700001	65.620	171.6058
31.100000	65.826	171.3206
31.500000	66.020	170.8800
32.000000	66.266	170.0630
32.500000	66.536	168.9542
33.000000	66.835	167.6518
33.500000	67.148	166.3544
34.000000	67.463	165.2511
34.500000	67.775	164.3835
35.000000	68.081	163.6287
35.500000	68.370	162.8232
36.000000	68.632	161.8991
36.500000	68.866	160.9142
37.000000	69.081	159.9796
37.500000	69.288	159.1572
38.200001	69.574	158.0782
38.700001	69.768	157.1780
39.500000	70.034	155.4175
40.000000	70.184	154.3232
40.599998	70.385	153.2635
41.200001	70.625	152.4692
41.799999	70.872	151.7709
42.500000	71.131	150.9111
43.099998	71.348	150.0198
43.700001	71.592	148.8921
44.400002	71.900	147.4297
45.000000	72.150	146.3879
45.500000	72.328	145.8021
46.200001	72.527	145.2798
46.799999	72.678	144.8012
47.500000	72.897	143.7792
48.200001	73.170	142.1448
48.700001	73.355	140.9265
49.400002	73.547	139.8890
50.000000	73.668	139.9230
50.799999	73.837	140.6087
51.500000	73.998	140.8323
52.200001	74.153	140.4124
53.000000	74.320	139.5642
53.799999	74.489	138.7986
54.500000	74.644	138.3145
55.200001	74.815	137.8846
56.000000	75.026	137.3008
57.000000	75.296	136.4248
58.000000	75.568	135.4183
59.000000	75.840	134.3093
60.000000	76.117	133.3009
60.799999	76.333	132.6215
61.500000	76.505	132.0754
62.200001	76.659	131.5437
63.000000	76.824	130.9512
64.000000	77.031	130.2634
65.000000	77.243	129.6485
66.000000	77.462	129.0582
67.000000	77.695	128.4336
68.000000	77.948	127.7496
69.000000	78.210	127.0127
70.000000	78.462	126.2542
71.000000	78.700	125.4696
72.000000	78.927	124.5850
73.000000	79.150	123.5645
74.000000	79.375	122.4802
75.000000	79.602	121.4201
76.199997	79.870	120.1770
77.500000	80.145	118.7666
78.800003	80.402	117.2966
80.000000	80.624	115.9257
81.199997	80.833	114.5518
82.500000	81.054	113.0462
83.800003	81.269	111.4931
85.000000	81.458	110.0086
86.199997	81.634	108.4794
87.500000	81.804	106.7898
88.500000	81.916	105.4987
90.000000	82.060	103.6313
91.199997	82.165	102.2125
92.500000	82.279	100.7636
93.800003	82.395	99.4004
95.000000	82.502	98.1741
96.199997	82.607	96.9345
97.500000	82.722	95.5678
98.800003	82.837	94.1899
100.000000	82.938	92.9121
101.500000	83.053	91.2647
103.000000	83.150	89.5056
104.400002	83.217	87.7751
106.000000	83.256	85.7646
107.500000	83.247	83.9440
109.000000	83.197	82.3541
110.599998	83.113	81.0775
112.000000	83.042	80.3022
113.800003	82.982	79.5483
115.000000	82.964	79.0569
117.199997	82.959	78.0269
118.000000	82.959	77.6133
120.599998	82.950	76.2168
122.000000	82.937	75.4904
124.099998	82.907	74.5335
125.000000	82.889	74.1842
126.500000	82.857	73.6719
128.000000	82.825	73.2157
131.500000	82.759	72.1737
132.000000	82.749	72.0230
134.000000	82.704	71.4521
136.000000	82.654	70.9412
138.000000	82.604	70.4847
140.000000	82.558	70.1011
143.000000	82.488	69.6336
145.000000	82.438	69.3284
147.500000	82.375	68.9277
150.000000	82.308	68.5298
152.500000	82.241	68.1365
155.000000	82.163	67.7067
157.500000	82.070	67.2253
160.000000	81.960	66.7992
162.500000	81.830	66.5824
165.000000	81.676	66.6994
167.500000	81.519	67.1495
170.000000	81.390	67.8122
172.500000	81.296	68.5189
175.000000	81.228	69.1869
177.500000	81.172	69.8199
180.000000	81.122	70.4099
182.500000	81.078	70.9619
185.000000	81.041	71.5077
187.500000	81.012	72.0720
190.000000	80.990	72.6509
192.500000	80.973	73.2248
195.000000	80.966	73.7723
197.500000	80.969	74.2737
200.000000	80.973	74.7406
203.000000	80.975	75.3282
206.000000	80.976	76.0065
209.000000	80.980	76.7551
212.000000	80.991	77.5131
214.000000	81.001	78.0036
218.000000	81.026	78.9167
220.000000	81.040	79.3293
224.000000	81.071	80.1227
227.000000	81.095	80.7521
230.000000	81.117	81.3944
233.000000	81.137	82.0157
236.000000	81.154	82.6213
240.000000	81.171	83.4136
243.000000	81.181	84.0012
247.000000	81.196	84.8129
250.000000	81.207	85.4289
254.000000	81.218	86.2526
258.000000	81.228	87.0848
262.000000	81.239	87.8947
265.000000	81.246	88.4981
269.000000	81.251	89.3313
272.000000	81.252	89.9791
276.000000	81.252	90.8495
280.000000	81.250	91.7026
285.000000	81.242	92.7701
290.000000	81.231	93.8925
295.000000	81.221	95.0337
300.000000	81.210	96.1736
304.000000	81.194	97.1300
307.000000	81.181	97.8750
311.000000	81.165	98.8851
315.000000	81.152	99.9055
320.000000	81.143	101.1953
325.000000	81.131	102.4604
330.000000	81.109	103.6452
335.000000	81.077	104.7878
340.000000	81.048	105.9480
345.000000	81.030	107.1396
350.000000	81.021	108.3417
355.000000	81.016	109.5272
360.000000	81.011	110.7131
365.000000	81.003	111.9554
370.000000	80.994	113.2755
375.000000	80.988	114.6483
382.000000	80.989	116.6053
387.000000	80.996	117.9910
395.000000	81.012	120.1569
400.000000	81.019	121.5195
406.000000	81.021	123.1992
412.000000	81.020	124.9201
418.000000	81.018	126.6674
425.000000	81.019	128.7295
431.000000	81.026	130.5370
437.000000	81.039	132.4020
444.000000	81.054	134.6119
450.000000	81.063	136.5037
455.000000	81.072	138.0917
462.000000	81.091	140.3419
468.000000	81.113	142.2877
475.000000	81.145	144.6036
482.000000	81.182	146.9777
487.000000	81.213	148.6801
494.000000	81.262	151.0040
500.000000	81.306	152.9055
508.000000	81.359	155.3223
515.000000	81.401	157.3763
522.000000	81.438	159.4371
530.000000	81.470	161.8598
538.000000	81.494	164.3423
545.000000	81.515	166.5551
552.000000	81.540	168.8210
560.000000	81.575	171.4895
570.000000	81.626	174.9153
580.000000	81.687	178.3709
590.000000	81.757	-178.2515
600.000000	81.823	-174.9985
608.000000	81.870	-172.4569
615.000000	81.910	-170.2636
622.000000	81.951	-168.0976
630.000000	81.998	-165.6209
640.000000	82.056	-162.4138
650.000000	82.113	-159.0393
660.000000	82.170	-155.5834
670.000000	82.229	-152.1462
680.000000	82.288	-148.7695
690.000000	82.344	-145.4196
700.000000	82.398	-142.0730
710.000000	82.447	-138.7155
720.000000	82.499	-135.3228
730.000000	82.562	-131.9316
740.000000	82.628	-128.6168
750.000000	82.687	-125.3719
762.000000	82.746	-121.5043
775.000000	82.802	-117.2328
788.000000	82.867	-112.8670
800.000000	82.935	-108.7732
812.000000	82.998	-104.6607
825.000000	83.061	-100.2223
838.000000	83.124	-95.7956
850.000000	83.182	-91.7341
862.000000	83.241	-87.7081
875.000000	83.309	-83.4820
885.000000	83.359	-80.4120
900.000000	83.416	-76.1864
912.000000	83.447	-73.0959
925.000000	83.480	-69.9472
938.000000	83.522	-66.8750
950.000000	83.563	-64.0043
962.000000	83.601	-61.0703
975.000000	83.640	-57.8093
988.000000	83.679	-54.4729
1000.000000	83.716	-51.3825
1015.000000	83.761	-47.5801
1030.000000	83.804	-43.8254
1044.000000	83.851	-40.3235
1060.000000	83.915	-36.3526
1075.000000	83.984	-32.7153
1090.000000	84.055	-29.1984
1106.000000	84.126	-25.6188
1120.000000	84.183	-22.6509
1138.000000	84.254	-19.0160
1150.000000	84.303	-16.6671
1172.000000	84.404	-12.5050
1180.000000	84.443	-11.0502
1206.000000	84.562	-6.5830
1220.000000	84.618	-4.3149
1241.000000	84.694	-0.9763
1250.000000	84.728	0.4728
1265.000000	84.788	2.9491
1280.000000	84.855	5.5072
1315.000000	85.033	11.6464
1320.000000	85.060	12.5212
1340.000000	85.168	15.9679
1360.000000	85.273	19.3208
1380.000000	85.374	22.6180
1400.000000	85.475	25.8816
1430.000000	85.629	30.7362
1450.000000	85.735	33.9983
1475.000000	85.878	38.1240
1500.000000	86.021	42.2450
1525.000000	86.165	46.3228
1550.000000	86.323	50.3910
1575.000000	86.495	54.4071
1600.000000	86.675	58.2978
1625.000000	86.859	61.9870
1650.000000	87.046	65.4498
1675.000000	87.230	68.7266
1700.000000	87.419	71.9133
1725.000000	87.622	75.1187
1750.000000	87.840	78.3550
1775.000000	88.063	81.4810
1800.000000	88.282	84.3380
1825.000000	88.494	86.8951
1850.000000	88.705	89.2582
1875.000000	88.920	91.5362
1900.000000	89.139	93.7561
1925.000000	89.359	95.9318
1950.000000	89.581	98.0866
1975.000000	89.805	100.2462
2000.000000	90.032	102.4369
2030.000000	90.315	105.0928
2060.000000	90.598	107.6801
2090.000000	90.870	110.0899
2120.000000	91.132	112.2760
2140.000000	91.303	113.6109
2180.000000	91.632	116.0268
2200.000000	91.789	117.1369
2240.000000	92.084	119.2438
2270.000000	92.285	120.7244
2300.000000	92.461	122.0502
2330.000000	92.610	123.1841
2360.000000	92.737	124.1449
2400.000000	92.888	125.1834
2430.000000	92.983	125.8035
2470.000000	93.077	126.4631
2500.000000	93.122	126.8727
2540.000000	93.157	127.4747
2580.000000	93.183	128.2315
2620.000000	93.209	129.0369
2650.000000	93.230	129.5422
2690.000000	93.256	129.8862
2720.000000	93.270	129.8385
2760.000000	93.274	129.3423
2800.000000	93.243	128.3717
2850.000000	93.108	126.5685
2900.000000	92.793	124.2206
2950.000000	92.225	121.8218
3000.000000	91.373	120.5605
3040.000000	90.544	121.4241
3070.000000	89.913	123.5142
3110.000000	89.164	128.0290
3150.000000	88.608	133.6265
3200.000000	88.199	140.4467
3250.000000	87.997	146.0689
3300.000000	87.882	150.5532
3350.000000	87.781	154.2528
3400.000000	87.674	157.3656
3450.000000	87.559	159.9822
3500.000000	87.436	162.2358
3550.000000	87.319	164.3800
3600.000000	87.218	166.6761
3650.000000	87.137	169.2432
3700.000000	87.081	172.0655
3750.000000	87.056	175.0317
3820.000000	87.064	179.1353
3870.000000	87.090	-178.1569
3950.000000	87.133	-174.3710
4000.000000	87.154	-172.2221
4060.000000	87.175	-169.6814
4120.000000	87.197	-167.1497
4180.000000	87.233	-164.6520
4250.000000	87.289	-161.9889
4310.000000	87.317	-160.2151
4370.000000	87.286	-158.8954
4440.000000	87.139	-157.2971
4500.000000	86.929	-155.2226
4550.000000	86.727	-152.7562
4620.000000	86.464	-148.2237
4680.000000	86.303	-143.5891
4750.000000	86.244	-137.8539
4820.000000	86.349	-132.5687
4870.000000	86.517	-129.4512
4940.000000	86.854	-126.2776
5000.000000	87.202	-124.7780
5080.000000	87.658	-124.4985
5150.000000	87.980	-125.5574
5220.000000	88.208	-127.3183
5300.000000	88.379	-129.4762
5380.000000	88.497	-131.5370
5450.000000	88.547	-133.5358
5520.000000	88.529	-135.7854
5600.000000	88.428	-138.4250
5700.000000	88.225	-141.4691
5800.000000	87.984	-144.2656
5900.000000	87.712	-147.3918
6000.000000	87.404	-151.1698
6080.000000	87.145	-154.5894
6150.000000	86.916	-157.7244
6220.000000	86.683	-160.7873
6300.000000	86.415	-163.8833
6400.000000	86.081	-166.8106
6500.000000	85.722	-168.8035
6600.000000	85.311	-170.1960
6700.000000	84.839	-170.9788
6800.000000	84.295	-170.8783
6900.000000	83.658	-169.6572
7000.000000	82.948	-167.1003
7100.000000	82.246	-163.1716
7200.000000	81.662	-158.0771
7300.000000	81.313	-152.1505
7400.000000	81.283	-145.8233
7500.000000	81.604	-139.4655
7620.000000	82.400	-132.2755
7750.000000	83.640	-126.0827
7880.000000	85.119	-123.3150
8000.000000	86.499	-124.6080
8120.000000	87.707	-129.3054
8250.000000	88.632	-137.4716
8380.000000	89.053	-147.7766
8500.000000	89.021	-158.0331
8620.000000	88.661	-167.8834
8750.000000	87.997	-177.0555
8850.000000	87.363	177.3765
9000.000000	86.338	171.6693
9120.000000	85.560	169.2057
9250.000000	84.838	167.8966
9380.000000	84.240	167.0735
9500.000000	83.747	166.2771
9620.000000	83.256	165.2331
9750.000000	82.694	163.8078
9880.000000	82.118	162.2808
10000.000000	81.615	160.8284
10150.000000	81.087	158.6907
10300.000000	80.716	155.7116
10440.000000	80.507	151.8167
10600.000000	80.361	146.1041
10750.000000	80.224	139.7292
10900.000000	80.001	132.2071
11060.000000	79.600	122.6943
11200.000000	79.103	113.3694
11380.000000	78.338	100.8813
11500.000000	77.807	92.6137
11720.000000	76.812	77.6978
11800.000000	76.416	72.2634
12060.000000	74.870	54.2574
12200.000000	73.852	44.5478
12410.000000	72.102	31.0091
12500.000000	71.287	25.9021
12650.000000	69.900	18.5347
12800.000000	68.591	12.7322
13150.000000	66.826	5.1826
13200.000000	66.793	4.3647
13400.000000	67.126	-0.6446
13600.000000	67.709	-10.2041
13800.000000	68.003	-23.4246
14000.000000	67.906	-37.6736
14300.000000	67.527	-58.8353
14500.000000	67.400	-73.6370
14750.000000	67.413	-93.8382
15000.000000	67.657	-116.8512
15250.000000	68.288	-143.8687
15500.000000	69.316	-175.8233
15750.000000	70.534	147.1102
16000.000000	71.745	106.1656
16250.000000	72.810	63.1930
16500.000000	73.555	19.1380
16750.000000	73.893	-25.1281
17000.000000	73.889	-68.2864
17250.000000	73.687	-109.3914
17500.000000	73.402	-149.6130
17750.000000	73.075	170.5278
18000.000000	72.647	132.0780
18250.000000	72.035	96.4592
18500.000000	71.256	64.3226
18750.000000	70.442	34.6235
19000.000000	69.811	4.7509
19250.000000	69.584	-28.3021
19500.000000	69.750	-63.8157
19750.000000	70.057	-94.5035
20000.000000	70.256	-111.6042
