* Measurement data measured by REW V5.31.3
* Source: Microphone (USB Sound Device        ), MICROPHONE (Master Volume), L, volume: 0.700
* Format: 256k Log Swept Sine, 1 sweep at -12.0 dBFS with no timing reference
* Dated: 31-Jan-2025 15:55:09
* REW Settings:
*  C-weighting compensation: Off
*  Target level: 75.0 dB
* Note: 
* Measurement: HFBP A R
* Smoothing: 1/12 octave
* Frequency Step: 1/48 octave
* Start Frequency: 20.300 Hz
*
* Freq(Hz)	SPL(dB)	Phase(degrees)
20.299999	85.878	63.6587
20.600000	85.906	63.1958
20.900000	85.940	62.5535
21.200001	85.969	61.8000
21.400000	85.983	61.2646
21.799999	85.994	60.1889
22.000000	85.993	59.6785
22.400000	85.984	58.7655
22.700001	85.978	58.1956
23.000000	85.979	57.7225
23.299999	85.993	57.3271
23.600000	86.021	56.9783
24.000000	86.079	56.5218
24.299999	86.132	56.1447
24.700001	86.207	55.5648
25.000000	86.257	55.0786
25.400000	86.309	54.4039
25.799999	86.343	53.7567
26.200001	86.367	53.1771
26.500000	86.384	52.7866
26.900000	86.413	52.2989
27.200001	86.440	51.9361
27.600000	86.481	51.4359
28.000000	86.526	50.9158
28.500000	86.581	50.2614
29.000000	86.633	49.6309
29.500000	86.683	49.0312
30.000000	86.734	48.4465
30.400000	86.777	47.9773
30.700001	86.809	47.6230
31.100000	86.851	47.1523
31.500000	86.893	46.6929
32.000000	86.945	46.1454
32.500000	86.996	45.6211
33.000000	87.046	45.0982
33.500000	87.092	44.5596
34.000000	87.139	44.0039
34.500000	87.187	43.4359
35.000000	87.239	42.8584
35.500000	87.289	42.2805
36.000000	87.334	41.7221
36.500000	87.376	41.1943
37.000000	87.417	40.6785
37.500000	87.459	40.1414
38.200001	87.516	39.3535
38.700001	87.556	38.8264
39.500000	87.630	38.1305
40.000000	87.683	37.7482
40.599998	87.740	37.2744
41.200001	87.782	36.7741
41.799999	87.813	36.2664
42.500000	87.852	35.6531
43.099998	87.893	35.0866
43.700001	87.938	34.4971
44.400002	87.990	33.8266
45.000000	88.032	33.2761
45.500000	88.064	32.8180
46.200001	88.103	32.1528
46.799999	88.135	31.5626
47.500000	88.179	30.8706
48.200001	88.234	30.1904
48.700001	88.277	29.7220
49.400002	88.335	29.1161
50.000000	88.376	28.6568
50.799999	88.418	28.0924
51.500000	88.448	27.5750
52.200001	88.475	27.0060
53.000000	88.503	26.3286
53.799999	88.531	25.6732
54.500000	88.557	25.1241
55.200001	88.585	24.5706
56.000000	88.617	23.9044
57.000000	88.652	23.0520
58.000000	88.683	22.2573
59.000000	88.717	21.5261
60.000000	88.750	20.8149
60.799999	88.774	20.2407
61.500000	88.792	19.7319
62.200001	88.808	19.2242
63.000000	88.826	18.6500
64.000000	88.850	17.9244
65.000000	88.874	17.1767
66.000000	88.896	16.4240
67.000000	88.914	15.6904
68.000000	88.930	14.9931
69.000000	88.945	14.3263
70.000000	88.959	13.6595
71.000000	88.972	12.9741
72.000000	88.982	12.2786
73.000000	88.991	11.5847
74.000000	88.998	10.8937
75.000000	89.002	10.2121
76.199997	89.002	9.4354
77.500000	89.000	8.6532
78.800003	88.996	7.8833
80.000000	88.987	7.1678
81.199997	88.976	6.4693
82.500000	88.965	5.7157
83.800003	88.954	4.9355
85.000000	88.941	4.2035
86.199997	88.919	3.4838
87.500000	88.890	2.7403
88.500000	88.867	2.2046
90.000000	88.831	1.4624
91.199997	88.801	0.8940
92.500000	88.769	0.2675
93.800003	88.736	-0.3767
95.000000	88.703	-0.9778
96.199997	88.668	-1.5696
97.500000	88.630	-2.1929
98.800003	88.590	-2.8043
100.000000	88.552	-3.3532
101.500000	88.504	-3.9937
103.000000	88.457	-4.5918
104.400002	88.415	-5.1461
106.000000	88.370	-5.7714
107.500000	88.326	-6.3311
109.000000	88.277	-6.8621
110.599998	88.222	-7.3902
112.000000	88.170	-7.8153
113.800003	88.099	-8.3276
115.000000	88.050	-8.6626
117.199997	87.959	-9.2780
118.000000	87.927	-9.4968
120.599998	87.830	-10.1306
122.000000	87.780	-10.4235
124.099998	87.702	-10.8347
125.000000	87.666	-11.0088
126.500000	87.606	-11.3003
128.000000	87.548	-11.5856
131.500000	87.430	-12.1766
132.000000	87.413	-12.2550
134.000000	87.347	-12.5725
136.000000	87.279	-12.9003
138.000000	87.213	-13.2025
140.000000	87.149	-13.4425
143.000000	87.050	-13.7466
145.000000	86.987	-13.9498
147.500000	86.911	-14.2260
150.000000	86.842	-14.5259
152.500000	86.777	-14.7956
155.000000	86.710	-15.0338
157.500000	86.639	-15.2634
160.000000	86.563	-15.4669
162.500000	86.485	-15.6200
165.000000	86.409	-15.6823
167.500000	86.337	-15.6490
170.000000	86.272	-15.5847
172.500000	86.218	-15.5188
175.000000	86.174	-15.4660
177.500000	86.136	-15.4415
180.000000	86.101	-15.4450
182.500000	86.061	-15.4781
185.000000	86.011	-15.5344
187.500000	85.949	-15.6128
190.000000	85.882	-15.7206
192.500000	85.819	-15.8573
195.000000	85.767	-16.0054
197.500000	85.729	-16.1490
200.000000	85.702	-16.2838
203.000000	85.683	-16.4359
206.000000	85.673	-16.5808
209.000000	85.663	-16.7439
212.000000	85.648	-16.9299
214.000000	85.634	-17.0503
218.000000	85.593	-17.2423
220.000000	85.568	-17.3140
224.000000	85.507	-17.4199
227.000000	85.455	-17.4730
230.000000	85.400	-17.5194
233.000000	85.346	-17.5687
236.000000	85.292	-17.6161
240.000000	85.221	-17.6674
243.000000	85.168	-17.6866
247.000000	85.098	-17.6918
250.000000	85.044	-17.6920
254.000000	84.976	-17.6900
258.000000	84.914	-17.6750
262.000000	84.854	-17.6426
265.000000	84.810	-17.6069
269.000000	84.752	-17.5399
272.000000	84.708	-17.4789
276.000000	84.652	-17.3839
280.000000	84.600	-17.2653
285.000000	84.541	-17.0966
290.000000	84.486	-16.9264
295.000000	84.432	-16.7496
300.000000	84.378	-16.5578
304.000000	84.338	-16.3937
307.000000	84.310	-16.2707
311.000000	84.274	-16.1167
315.000000	84.234	-15.9783
320.000000	84.185	-15.8097
325.000000	84.142	-15.6298
330.000000	84.105	-15.4237
335.000000	84.075	-15.1932
340.000000	84.051	-14.9667
345.000000	84.029	-14.7512
350.000000	84.004	-14.5344
355.000000	83.977	-14.2970
360.000000	83.948	-14.0347
365.000000	83.921	-13.7849
370.000000	83.896	-13.5788
375.000000	83.874	-13.4048
382.000000	83.845	-13.1572
387.000000	83.828	-12.9727
395.000000	83.808	-12.6910
400.000000	83.801	-12.5492
406.000000	83.797	-12.4054
412.000000	83.788	-12.2588
418.000000	83.774	-12.0842
425.000000	83.759	-11.8631
431.000000	83.750	-11.6753
437.000000	83.737	-11.4827
444.000000	83.719	-11.2552
450.000000	83.705	-11.0695
455.000000	83.694	-10.9271
462.000000	83.676	-10.7332
468.000000	83.661	-10.5454
475.000000	83.646	-10.2843
482.000000	83.633	-9.9861
487.000000	83.627	-9.7711
494.000000	83.627	-9.5034
500.000000	83.634	-9.3128
508.000000	83.653	-9.0823
515.000000	83.672	-8.8885
522.000000	83.687	-8.7101
530.000000	83.697	-8.5229
538.000000	83.706	-8.3303
545.000000	83.715	-8.1675
552.000000	83.727	-8.0343
560.000000	83.741	-7.9177
570.000000	83.761	-7.8049
580.000000	83.778	-7.6962
590.000000	83.785	-7.5712
600.000000	83.792	-7.4555
608.000000	83.802	-7.3720
615.000000	83.813	-7.3117
622.000000	83.823	-7.2620
630.000000	83.834	-7.2097
640.000000	83.845	-7.1570
650.000000	83.854	-7.1322
660.000000	83.864	-7.1293
670.000000	83.874	-7.1533
680.000000	83.881	-7.1843
690.000000	83.885	-7.1843
700.000000	83.887	-7.1798
710.000000	83.884	-7.2159
720.000000	83.875	-7.2752
730.000000	83.860	-7.3423
740.000000	83.839	-7.4292
750.000000	83.815	-7.5352
762.000000	83.776	-7.6274
775.000000	83.722	-7.6035
788.000000	83.664	-7.4839
800.000000	83.614	-7.3251
812.000000	83.570	-7.1002
825.000000	83.524	-6.7958
838.000000	83.477	-6.4712
850.000000	83.429	-6.1861
862.000000	83.379	-5.8892
875.000000	83.323	-5.5011
885.000000	83.279	-5.1392
900.000000	83.219	-4.5049
912.000000	83.181	-3.9404
925.000000	83.152	-3.2971
938.000000	83.134	-2.6304
950.000000	83.125	-2.0037
962.000000	83.124	-1.3745
975.000000	83.132	-0.6980
988.000000	83.150	-0.0395
1000.000000	83.174	0.5387
1015.000000	83.214	1.2341
1030.000000	83.260	1.9223
1044.000000	83.308	2.5394
1060.000000	83.367	3.1735
1075.000000	83.432	3.6970
1090.000000	83.503	4.1737
1106.000000	83.582	4.6461
1120.000000	83.652	5.0079
1138.000000	83.741	5.3615
1150.000000	83.799	5.5383
1172.000000	83.905	5.8149
1180.000000	83.945	5.9116
1206.000000	84.076	6.2086
1220.000000	84.148	6.3463
1241.000000	84.262	6.5334
1250.000000	84.314	6.6156
1265.000000	84.402	6.7647
1280.000000	84.493	6.9286
1315.000000	84.691	7.3417
1320.000000	84.713	7.4015
1340.000000	84.771	7.6474
1360.000000	84.777	7.9331
1380.000000	84.749	8.2732
1400.000000	84.716	8.6450
1430.000000	84.706	9.2040
1450.000000	84.734	9.5598
1475.000000	84.808	9.9280
1500.000000	84.915	10.1840
1525.000000	85.037	10.3664
1550.000000	85.160	10.5304
1575.000000	85.277	10.7143
1600.000000	85.391	10.9173
1625.000000	85.507	11.0986
1650.000000	85.622	11.2482
1675.000000	85.732	11.4014
1700.000000	85.841	11.5597
1725.000000	85.948	11.6914
1750.000000	86.052	11.7812
1775.000000	86.152	11.8687
1800.000000	86.250	11.9873
1825.000000	86.348	12.1262
1850.000000	86.447	12.2663
1875.000000	86.548	12.4091
1900.000000	86.652	12.5484
1925.000000	86.760	12.6611
1950.000000	86.873	12.7330
1975.000000	86.990	12.7671
2000.000000	87.107	12.7774
2030.000000	87.248	12.7543
2060.000000	87.386	12.6721
2090.000000	87.517	12.5469
2120.000000	87.642	12.4103
2140.000000	87.725	12.3156
2180.000000	87.897	12.0993
2200.000000	87.985	11.9765
2240.000000	88.160	11.7113
2270.000000	88.290	11.4690
2300.000000	88.422	11.1775
2330.000000	88.554	10.8516
2360.000000	88.684	10.5001
2400.000000	88.853	9.9888
2430.000000	88.977	9.5667
2470.000000	89.139	8.9338
2500.000000	89.257	8.4028
2540.000000	89.405	7.6311
2580.000000	89.545	6.7839
2620.000000	89.676	5.8589
2650.000000	89.766	5.1281
2690.000000	89.872	4.1192
2720.000000	89.939	3.3357
2760.000000	90.012	2.2608
2800.000000	90.067	1.1769
2850.000000	90.108	-0.1391
2900.000000	90.127	-1.3622
2950.000000	90.129	-2.4471
3000.000000	90.120	-3.3820
3040.000000	90.110	-4.0598
3070.000000	90.103	-4.5477
3110.000000	90.093	-5.1670
3150.000000	90.082	-5.7515
3200.000000	90.070	-6.4472
3250.000000	90.059	-7.1019
3300.000000	90.044	-7.7343
3350.000000	90.021	-8.3700
3400.000000	89.987	-9.0068
3450.000000	89.940	-9.6304
3500.000000	89.878	-10.2320
3550.000000	89.799	-10.7846
3600.000000	89.709	-11.2522
3650.000000	89.615	-11.5996
3700.000000	89.525	-11.8181
3750.000000	89.444	-11.9234
3820.000000	89.351	-11.8892
3870.000000	89.300	-11.7364
3950.000000	89.240	-11.3040
4000.000000	89.210	-10.9444
4060.000000	89.172	-10.4290
4120.000000	89.132	-9.7554
4180.000000	89.108	-8.8710
4250.000000	89.145	-7.7536
4310.000000	89.238	-7.0393
4370.000000	89.354	-6.6884
4440.000000	89.492	-6.6612
4500.000000	89.607	-6.8889
4550.000000	89.695	-7.1967
4620.000000	89.799	-7.6713
4680.000000	89.880	-8.0292
4750.000000	89.975	-8.3842
4820.000000	90.074	-8.7321
4870.000000	90.147	-9.0069
4940.000000	90.248	-9.4559
5000.000000	90.331	-9.9190
5080.000000	90.432	-10.6651
5150.000000	90.508	-11.4453
5220.000000	90.573	-12.3289
5300.000000	90.629	-13.4558
5380.000000	90.660	-14.7160
5450.000000	90.661	-15.9206
5520.000000	90.640	-17.1963
5600.000000	90.591	-18.7244
5700.000000	90.494	-20.6903
5800.000000	90.354	-22.6130
5900.000000	90.173	-24.4114
6000.000000	89.952	-26.0254
6080.000000	89.747	-27.1330
6150.000000	89.545	-27.9405
6220.000000	89.325	-28.5844
6300.000000	89.058	-29.1062
6400.000000	88.714	-29.4153
6500.000000	88.374	-29.3436
6600.000000	88.058	-28.9358
6700.000000	87.783	-28.2502
6800.000000	87.565	-27.3587
6900.000000	87.414	-26.3513
7000.000000	87.335	-25.3299
7100.000000	87.335	-24.4220
7200.000000	87.413	-23.7794
7300.000000	87.568	-23.5583
7400.000000	87.787	-23.8944
7500.000000	88.051	-24.9117
7620.000000	88.372	-27.1526
7750.000000	88.619	-30.8399
7880.000000	88.632	-35.5930
8000.000000	88.360	-40.4607
8120.000000	87.797	-45.2405
8250.000000	86.892	-49.7165
8380.000000	85.767	-52.9818
8500.000000	84.626	-54.7097
8620.000000	83.463	-55.1831
8750.000000	82.239	-54.3968
8850.000000	81.344	-53.0059
9000.000000	80.095	-49.9179
9120.000000	79.178	-46.7857
9250.000000	78.265	-42.8946
9380.000000	77.433	-38.5939
9500.000000	76.733	-34.3283
9620.000000	76.098	-29.8209
9750.000000	75.488	-24.6839
9880.000000	74.961	-19.2889
10000.000000	74.550	-14.0998
10150.000000	74.147	-7.4072
10300.000000	73.870	-0.6235
10440.000000	73.712	5.6579
10600.000000	73.638	12.7364
10750.000000	73.683	19.2599
10900.000000	73.851	25.5146
11060.000000	74.152	31.6988
11200.000000	74.493	36.7087
11380.000000	75.041	42.6795
11500.000000	75.488	46.2774
11720.000000	76.484	51.6513
11800.000000	76.895	53.1023
12060.000000	78.341	55.5304
12200.000000	79.135	55.1826
12410.000000	80.210	52.2737
12500.000000	80.583	50.1952
12650.000000	81.029	45.8643
12800.000000	81.211	40.8716
13150.000000	80.518	29.9389
13200.000000	80.305	28.7352
13400.000000	79.266	25.2482
13600.000000	78.080	24.0133
13800.000000	76.953	24.8407
14000.000000	76.033	27.2481
14300.000000	75.175	32.5168
14500.000000	74.946	36.3461
14750.000000	74.959	40.6759
15000.000000	75.195	43.9087
15250.000000	75.545	45.5650
15500.000000	75.918	45.1961
15750.000000	76.271	42.4663
16000.000000	76.569	37.2488
16250.000000	76.715	29.7506
16500.000000	76.551	20.6545
16750.000000	75.954	11.0526
17000.000000	74.901	2.1785
17250.000000	73.453	-4.9653
17500.000000	71.718	-9.7188
17750.000000	69.831	-11.7647
18000.000000	67.929	-11.1304
18250.000000	66.139	-8.2161
18500.000000	64.550	-3.5817
18750.000000	63.190	2.1684
19000.000000	62.036	8.4679
19250.000000	61.043	14.9962
19500.000000	60.173	21.4663
19750.000000	59.433	27.1629
20000.000000	58.977	30.6339
