* Measurement data measured by REW V5.31.3
* Source: Microphone (USB Sound Device        ), MICROPHONE (Master Volume), L, volume: 0.700
* Format: 256k Log Swept Sine, 1 sweep at -12.0 dBFS with no timing reference
* Dated: 31-Jan-2025 15:55:47
* REW Settings:
*  C-weighting compensation: Off
*  Target level: 75.0 dB
* Note: 
* Measurement: HFBP R
* Smoothing: 1/12 octave
* Frequency Step: 1/48 octave
* Start Frequency: 20.300 Hz
*
* Freq(Hz)	SPL(dB)	Phase(degrees)
20.299999	80.121	62.4401
20.600000	80.175	62.3823
20.900000	80.251	62.4931
21.200001	80.350	62.8014
21.400000	80.431	63.0688
21.799999	80.626	63.5318
22.000000	80.733	63.6336
22.400000	80.940	63.4482
22.700001	81.070	62.9770
23.000000	81.170	62.3082
23.299999	81.243	61.5558
23.600000	81.299	60.8270
24.000000	81.368	60.0126
24.299999	81.430	59.5466
24.700001	81.532	59.0819
25.000000	81.620	58.8050
25.400000	81.738	58.4716
25.799999	81.844	58.1418
26.200001	81.931	57.8019
26.500000	81.986	57.5422
26.900000	82.054	57.1986
27.200001	82.107	56.9487
27.600000	82.189	56.6272
28.000000	82.287	56.3056
28.500000	82.422	55.8716
29.000000	82.546	55.3928
29.500000	82.643	54.9139
30.000000	82.721	54.4823
30.400000	82.785	54.1579
30.700001	82.842	53.8990
31.100000	82.933	53.5022
31.500000	83.037	53.0426
32.000000	83.172	52.4384
32.500000	83.301	51.8943
33.000000	83.414	51.4549
33.500000	83.508	51.0931
34.000000	83.580	50.7673
34.500000	83.638	50.4632
35.000000	83.698	50.1698
35.500000	83.774	49.8406
36.000000	83.872	49.4079
36.500000	83.979	48.8460
37.000000	84.078	48.2126
37.500000	84.163	47.6156
38.200001	84.277	46.9578
38.700001	84.373	46.5443
39.500000	84.536	45.7200
40.000000	84.615	45.1202
40.599998	84.672	44.5143
41.200001	84.712	44.1516
41.799999	84.767	43.9132
42.500000	84.858	43.4731
43.099998	84.940	42.8341
43.700001	85.013	42.0544
44.400002	85.081	41.2258
45.000000	85.131	40.7196
45.500000	85.171	40.4020
46.200001	85.230	39.9409
46.799999	85.293	39.4498
47.500000	85.421	38.7563
48.200001	85.617	37.8701
48.700001	85.756	37.1402
49.400002	85.872	36.2549
50.000000	85.883	35.8849
50.799999	85.840	35.8661
51.500000	85.815	35.8486
52.200001	85.823	35.6579
53.000000	85.881	35.4223
53.799999	85.982	35.1661
54.500000	86.066	34.7352
55.200001	86.121	34.0603
56.000000	86.154	33.1522
57.000000	86.198	32.1277
58.000000	86.256	31.3137
59.000000	86.310	30.5842
60.000000	86.366	29.8453
60.799999	86.414	29.2488
61.500000	86.455	28.7538
62.200001	86.492	28.2899
63.000000	86.531	27.7734
64.000000	86.579	27.1107
65.000000	86.628	26.4362
66.000000	86.673	25.7891
67.000000	86.716	25.1873
68.000000	86.757	24.5977
69.000000	86.796	23.9775
70.000000	86.827	23.3285
71.000000	86.856	22.6842
72.000000	86.891	22.0556
73.000000	86.928	21.4318
74.000000	86.961	20.8106
75.000000	86.989	20.2057
76.199997	87.016	19.5272
77.500000	87.044	18.8054
78.800003	87.070	18.0341
80.000000	87.091	17.3165
81.199997	87.106	16.6263
82.500000	87.114	15.9049
83.800003	87.122	15.2261
85.000000	87.133	14.6262
86.199997	87.144	14.0215
87.500000	87.153	13.3432
88.500000	87.155	12.8066
90.000000	87.149	11.9888
91.199997	87.141	11.3384
92.500000	87.133	10.6692
93.800003	87.128	10.0486
95.000000	87.125	9.5029
96.199997	87.120	8.9767
97.500000	87.110	8.4425
98.800003	87.093	7.9360
100.000000	87.075	7.4626
101.500000	87.057	6.8445
103.000000	87.045	6.2125
104.400002	87.033	5.6243
106.000000	87.016	4.9552
107.500000	86.995	4.3189
109.000000	86.972	3.7144
110.599998	86.947	3.1765
112.000000	86.923	2.7637
113.800003	86.889	2.2474
115.000000	86.863	1.9149
117.199997	86.810	1.3096
118.000000	86.790	1.0854
120.599998	86.730	0.3663
122.000000	86.703	0.0126
124.099998	86.662	-0.4616
125.000000	86.644	-0.6564
126.500000	86.614	-0.9863
128.000000	86.580	-1.3227
131.500000	86.503	-2.1012
132.000000	86.492	-2.2107
134.000000	86.449	-2.6486
136.000000	86.408	-3.0660
138.000000	86.369	-3.4600
140.000000	86.331	-3.8486
143.000000	86.275	-4.4164
145.000000	86.233	-4.8052
147.500000	86.175	-5.3069
150.000000	86.110	-5.8166
152.500000	86.032	-6.3516
155.000000	85.938	-6.8891
157.500000	85.824	-7.3495
160.000000	85.695	-7.6579
162.500000	85.561	-7.7676
165.000000	85.435	-7.5913
167.500000	85.323	-7.1445
170.000000	85.233	-6.5308
172.500000	85.176	-5.7949
175.000000	85.161	-4.9939
177.500000	85.190	-4.2677
180.000000	85.253	-3.7520
182.500000	85.327	-3.5008
185.000000	85.388	-3.4989
187.500000	85.426	-3.6832
190.000000	85.443	-3.9626
192.500000	85.451	-4.2737
195.000000	85.458	-4.6072
197.500000	85.468	-4.9694
200.000000	85.485	-5.3474
203.000000	85.513	-5.7824
206.000000	85.547	-6.1875
209.000000	85.578	-6.5766
212.000000	85.601	-6.9412
214.000000	85.611	-7.1763
218.000000	85.615	-7.6589
220.000000	85.611	-7.9072
224.000000	85.589	-8.3626
227.000000	85.565	-8.6492
230.000000	85.536	-8.9113
233.000000	85.505	-9.1629
236.000000	85.471	-9.4062
240.000000	85.422	-9.7482
243.000000	85.383	-10.0268
247.000000	85.332	-10.3596
250.000000	85.297	-10.5500
254.000000	85.257	-10.7351
258.000000	85.218	-10.9015
262.000000	85.176	-11.0656
265.000000	85.145	-11.1727
269.000000	85.105	-11.3071
272.000000	85.076	-11.4115
276.000000	85.039	-11.5701
280.000000	85.003	-11.7397
285.000000	84.958	-11.9135
290.000000	84.915	-12.0243
295.000000	84.870	-12.1222
300.000000	84.821	-12.2569
304.000000	84.782	-12.3890
307.000000	84.753	-12.4805
311.000000	84.714	-12.5743
315.000000	84.679	-12.6407
320.000000	84.644	-12.7070
325.000000	84.609	-12.7537
330.000000	84.568	-12.7860
335.000000	84.527	-12.8105
340.000000	84.494	-12.8426
345.000000	84.466	-12.9029
350.000000	84.437	-12.9791
355.000000	84.403	-13.0660
360.000000	84.367	-13.1593
365.000000	84.332	-13.2340
370.000000	84.298	-13.2668
375.000000	84.265	-13.2757
382.000000	84.220	-13.3227
387.000000	84.188	-13.3697
395.000000	84.142	-13.3910
400.000000	84.116	-13.3964
406.000000	84.086	-13.4297
412.000000	84.055	-13.4780
418.000000	84.018	-13.5146
425.000000	83.965	-13.5479
431.000000	83.915	-13.5831
437.000000	83.866	-13.6201
444.000000	83.815	-13.6182
450.000000	83.774	-13.5679
455.000000	83.740	-13.5003
462.000000	83.695	-13.3670
468.000000	83.662	-13.2125
475.000000	83.630	-12.9942
482.000000	83.599	-12.7788
487.000000	83.577	-12.6597
494.000000	83.548	-12.5694
500.000000	83.529	-12.5553
508.000000	83.509	-12.5768
515.000000	83.488	-12.5857
522.000000	83.459	-12.5566
530.000000	83.415	-12.4780
538.000000	83.367	-12.3964
545.000000	83.323	-12.3432
552.000000	83.283	-12.2924
560.000000	83.241	-12.2076
570.000000	83.191	-12.0569
580.000000	83.139	-11.8653
590.000000	83.086	-11.6581
600.000000	83.031	-11.4651
608.000000	82.983	-11.2956
615.000000	82.941	-11.1298
622.000000	82.901	-10.9558
630.000000	82.858	-10.7435
640.000000	82.805	-10.4210
650.000000	82.751	-10.0269
660.000000	82.703	-9.5784
670.000000	82.665	-9.1210
680.000000	82.635	-8.7072
690.000000	82.606	-8.3159
700.000000	82.577	-7.8993
710.000000	82.551	-7.4588
720.000000	82.529	-7.0224
730.000000	82.507	-6.6061
740.000000	82.483	-6.2155
750.000000	82.458	-5.8163
762.000000	82.430	-5.2614
775.000000	82.400	-4.5733
788.000000	82.378	-3.8828
800.000000	82.375	-3.2603
812.000000	82.383	-2.6755
825.000000	82.398	-2.0789
838.000000	82.412	-1.4814
850.000000	82.419	-0.9365
862.000000	82.425	-0.3984
875.000000	82.438	0.1949
885.000000	82.454	0.6592
900.000000	82.482	1.3637
912.000000	82.505	1.9292
925.000000	82.533	2.5264
938.000000	82.565	3.1089
950.000000	82.597	3.6395
962.000000	82.630	4.1540
975.000000	82.666	4.6807
988.000000	82.705	5.1815
1000.000000	82.747	5.6231
1015.000000	82.807	6.1536
1030.000000	82.873	6.6790
1044.000000	82.939	7.1639
1060.000000	83.018	7.6889
1075.000000	83.094	8.1436
1090.000000	83.168	8.5617
1106.000000	83.241	8.9653
1120.000000	83.303	9.2863
1138.000000	83.385	9.6593
1150.000000	83.443	9.8832
1172.000000	83.561	10.2563
1180.000000	83.607	10.3875
1206.000000	83.757	10.7957
1220.000000	83.841	10.9908
1241.000000	83.973	11.2562
1250.000000	84.034	11.3691
1265.000000	84.139	11.5703
1280.000000	84.249	11.7937
1315.000000	84.493	12.3318
1320.000000	84.521	12.4043
1340.000000	84.607	12.6833
1360.000000	84.650	12.9584
1380.000000	84.661	13.2387
1400.000000	84.663	13.5154
1430.000000	84.690	13.9177
1450.000000	84.744	14.1805
1475.000000	84.849	14.4778
1500.000000	84.980	14.7227
1525.000000	85.123	14.9340
1550.000000	85.273	15.1133
1575.000000	85.425	15.2456
1600.000000	85.573	15.3339
1625.000000	85.718	15.3727
1650.000000	85.858	15.3776
1675.000000	85.991	15.3547
1700.000000	86.119	15.2980
1725.000000	86.247	15.2314
1750.000000	86.372	15.1760
1775.000000	86.494	15.1179
1800.000000	86.613	15.0479
1825.000000	86.729	14.9826
1850.000000	86.843	14.9348
1875.000000	86.959	14.8970
1900.000000	87.078	14.8424
1925.000000	87.200	14.7523
1950.000000	87.324	14.6172
1975.000000	87.445	14.4389
2000.000000	87.564	14.2363
2030.000000	87.707	13.9700
2060.000000	87.846	13.6492
2090.000000	87.977	13.2697
2120.000000	88.105	12.8496
2140.000000	88.189	12.5534
2180.000000	88.349	11.9257
2200.000000	88.424	11.5953
2240.000000	88.570	10.9304
2270.000000	88.679	10.4444
2300.000000	88.785	9.9552
2330.000000	88.889	9.4401
2360.000000	88.989	8.8964
2400.000000	89.118	8.1431
2430.000000	89.210	7.5635
2470.000000	89.328	6.7599
2500.000000	89.412	6.1249
2540.000000	89.518	5.2353
2580.000000	89.614	4.2950
2620.000000	89.698	3.2994
2650.000000	89.752	2.5265
2690.000000	89.811	1.4871
2720.000000	89.843	0.7096
2760.000000	89.871	-0.3246
2800.000000	89.881	-1.3452
2850.000000	89.877	-2.5546
2900.000000	89.857	-3.6533
2950.000000	89.823	-4.6293
3000.000000	89.779	-5.4595
3040.000000	89.740	-6.0083
3070.000000	89.710	-6.3671
3110.000000	89.672	-6.7996
3150.000000	89.637	-7.2003
3200.000000	89.601	-7.6844
3250.000000	89.571	-8.1615
3300.000000	89.543	-8.6272
3350.000000	89.509	-9.0836
3400.000000	89.464	-9.5432
3450.000000	89.408	-10.0011
3500.000000	89.337	-10.4335
3550.000000	89.251	-10.8215
3600.000000	89.152	-11.1453
3650.000000	89.047	-11.3736
3700.000000	88.946	-11.4834
3750.000000	88.856	-11.4751
3820.000000	88.752	-11.2536
3870.000000	88.689	-10.9227
3950.000000	88.609	-10.1248
4000.000000	88.569	-9.5106
4060.000000	88.526	-8.6586
4120.000000	88.490	-7.6193
4180.000000	88.481	-6.3674
4250.000000	88.540	-4.8481
4310.000000	88.652	-3.8016
4370.000000	88.793	-3.1218
4440.000000	88.972	-2.7224
4500.000000	89.133	-2.6558
4550.000000	89.268	-2.7585
4620.000000	89.447	-3.0361
4680.000000	89.592	-3.3145
4750.000000	89.757	-3.6609
4820.000000	89.919	-4.0659
4870.000000	90.032	-4.4176
4940.000000	90.182	-5.0223
5000.000000	90.301	-5.6546
5080.000000	90.446	-6.6423
5150.000000	90.557	-7.6169
5220.000000	90.649	-8.7008
5300.000000	90.725	-10.0847
5380.000000	90.768	-11.5985
5450.000000	90.779	-13.0124
5520.000000	90.765	-14.5002
5600.000000	90.717	-16.2729
5700.000000	90.603	-18.5331
5800.000000	90.431	-20.7071
5900.000000	90.208	-22.6609
6000.000000	89.943	-24.2872
6080.000000	89.704	-25.3018
6150.000000	89.476	-25.9626
6220.000000	89.235	-26.4080
6300.000000	88.952	-26.6561
6400.000000	88.604	-26.5924
6500.000000	88.281	-26.1544
6600.000000	88.000	-25.4012
6700.000000	87.773	-24.4150
6800.000000	87.611	-23.2977
6900.000000	87.524	-22.1570
7000.000000	87.515	-21.1160
7100.000000	87.587	-20.3010
7200.000000	87.738	-19.8472
7300.000000	87.961	-19.8917
7400.000000	88.237	-20.5624
7500.000000	88.541	-21.9665
7620.000000	88.887	-24.7055
7750.000000	89.139	-28.9281
7880.000000	89.135	-34.1380
8000.000000	88.828	-39.3181
8120.000000	88.221	-44.2859
8250.000000	87.271	-48.8246
8380.000000	86.111	-52.0444
8500.000000	84.949	-53.6764
8620.000000	83.775	-54.0488
8750.000000	82.548	-53.1832
8850.000000	81.659	-51.7512
9000.000000	80.426	-48.6040
9120.000000	79.524	-45.4162
9250.000000	78.626	-41.4724
9380.000000	77.805	-37.1453
9500.000000	77.120	-32.8782
9620.000000	76.507	-28.3774
9750.000000	75.921	-23.2676
9880.000000	75.415	-17.9312
10000.000000	75.021	-12.8022
10150.000000	74.635	-6.1472
10300.000000	74.371	0.6534
10440.000000	74.232	6.9823
10600.000000	74.188	14.1331
10750.000000	74.264	20.7512
10900.000000	74.471	27.1111
11060.000000	74.823	33.3873
11200.000000	75.224	38.4496
11380.000000	75.872	44.4426
11500.000000	76.403	48.0148
11720.000000	77.596	53.1295
11800.000000	78.091	54.3803
12060.000000	79.822	55.5818
12200.000000	80.748	54.1197
12410.000000	81.943	48.9649
12500.000000	82.325	45.7745
12650.000000	82.720	39.5398
12800.000000	82.764	32.7744
13150.000000	81.527	19.2199
13200.000000	81.228	17.8499
13400.000000	79.849	14.1590
13600.000000	78.361	13.2858
13800.000000	76.981	14.7964
14000.000000	75.863	18.0138
14300.000000	74.801	24.4940
14500.000000	74.482	29.0719
14750.000000	74.422	34.2894
15000.000000	74.623	38.3120
15250.000000	74.972	40.6063
15500.000000	75.356	40.6534
15750.000000	75.701	38.0816
16000.000000	75.947	32.7890
16250.000000	75.975	25.1870
16500.000000	75.630	16.3346
16750.000000	74.823	7.6426
17000.000000	73.587	0.4011
17250.000000	72.047	-4.5485
17500.000000	70.349	-6.9108
17750.000000	68.626	-6.7800
18000.000000	66.989	-4.5160
18250.000000	65.527	-0.6415
18500.000000	64.280	4.2692
18750.000000	63.225	9.6569
19000.000000	62.310	15.2002
19250.000000	61.489	20.7736
19500.000000	60.736	26.1859
19750.000000	60.092	30.9159
20000.000000	59.703	33.7627
