* Measurement data measured by REW V5.31.3
* Source: Microphone (6- USB Sound Device        ), MICROPHONE (Master Volume), L, volume: 0.700
* Format: 256k Log Swept Sine, 1 sweep at -12.0 dBFS with no timing reference
* Dated: 04-Mar-2025 19:19:38
* REW Settings:
*  C-weighting compensation: Off
*  Target level: 75.0 dB
* Note: 
* Measurement: HFBP4 BB
* Smoothing: 1/12 octave
* Frequency Step: 1/48 octave
* Start Frequency: 20.300 Hz
*
* Freq(Hz)	SPL(dB)	Phase(degrees)
20.299999	83.373	-15.0307
20.600000	83.347	-14.8168
20.900000	83.316	-14.5462
21.200001	83.285	-14.2638
21.400000	83.267	-14.0828
21.799999	83.235	-13.7573
22.000000	83.222	-13.6154
22.400000	83.198	-13.3649
22.700001	83.182	-13.1933
23.000000	83.167	-13.0241
23.299999	83.156	-12.8523
23.600000	83.148	-12.6793
24.000000	83.141	-12.4566
24.299999	83.138	-12.3029
24.700001	83.137	-12.1200
25.000000	83.139	-11.9974
25.400000	83.144	-11.8486
25.799999	83.154	-11.7167
26.200001	83.167	-11.6074
26.500000	83.179	-11.5436
26.900000	83.194	-11.4823
27.200001	83.205	-11.4506
27.600000	83.219	-11.4215
28.000000	83.235	-11.4063
28.500000	83.257	-11.4154
29.000000	83.282	-11.4648
29.500000	83.308	-11.5457
30.000000	83.336	-11.6367
30.400000	83.359	-11.7106
30.700001	83.377	-11.7714
31.100000	83.403	-11.8708
31.500000	83.428	-12.0017
32.000000	83.457	-12.2137
32.500000	83.481	-12.4671
33.000000	83.504	-12.7471
33.500000	83.526	-13.0495
34.000000	83.551	-13.3789
34.500000	83.577	-13.7380
35.000000	83.601	-14.1229
35.500000	83.620	-14.5253
36.000000	83.633	-14.9373
36.500000	83.643	-15.3535
37.000000	83.650	-15.7741
37.500000	83.654	-16.2064
38.200001	83.657	-16.8509
38.700001	83.654	-17.3429
39.500000	83.641	-18.1535
40.000000	83.628	-18.6537
40.599998	83.612	-19.2452
41.200001	83.594	-19.8417
41.799999	83.571	-20.4475
42.500000	83.535	-21.1433
43.099998	83.497	-21.7097
43.700001	83.458	-22.2517
44.400002	83.414	-22.8797
45.000000	83.374	-23.4291
45.500000	83.336	-23.8909
46.200001	83.272	-24.5253
46.799999	83.211	-25.0472
47.500000	83.139	-25.6322
48.200001	83.069	-26.1996
48.700001	83.023	-26.5976
49.400002	82.958	-27.1485
50.000000	82.898	-27.6172
50.799999	82.806	-28.2276
51.500000	82.717	-28.7299
52.200001	82.627	-29.1921
53.000000	82.525	-29.6818
53.799999	82.423	-30.1543
54.500000	82.335	-30.5635
55.200001	82.248	-30.9630
56.000000	82.149	-31.4023
57.000000	82.022	-31.9339
58.000000	81.886	-32.4408
59.000000	81.748	-32.9100
60.000000	81.611	-33.3368
60.799999	81.502	-33.6371
61.500000	81.407	-33.8725
62.200001	81.312	-34.0917
63.000000	81.204	-34.3281
64.000000	81.071	-34.6060
65.000000	80.936	-34.8669
66.000000	80.797	-35.0924
67.000000	80.659	-35.2742
68.000000	80.525	-35.4337
69.000000	80.393	-35.5801
70.000000	80.258	-35.7059
71.000000	80.121	-35.8121
72.000000	79.987	-35.9025
73.000000	79.858	-35.9664
74.000000	79.735	-35.9911
75.000000	79.613	-35.9845
76.199997	79.467	-35.9589
77.500000	79.312	-35.9079
78.800003	79.155	-35.8254
80.000000	79.006	-35.7385
81.199997	78.858	-35.6411
82.500000	78.703	-35.5083
83.800003	78.555	-35.3334
85.000000	78.425	-35.1466
86.199997	78.302	-34.9664
87.500000	78.173	-34.7998
88.500000	78.075	-34.6875
90.000000	77.926	-34.5123
91.199997	77.804	-34.3546
92.500000	77.672	-34.1783
93.800003	77.539	-33.9848
95.000000	77.414	-33.7718
96.199997	77.292	-33.5238
97.500000	77.163	-33.2266
98.800003	77.036	-32.9107
100.000000	76.920	-32.6229
101.500000	76.778	-32.2912
103.000000	76.641	-31.9795
104.400002	76.514	-31.6833
106.000000	76.373	-31.2997
107.500000	76.245	-30.8909
109.000000	76.119	-30.4498
110.599998	75.985	-29.9373
112.000000	75.865	-29.4573
113.800003	75.704	-28.8152
115.000000	75.596	-28.3847
117.199997	75.409	-27.6095
118.000000	75.344	-27.3267
120.599998	75.133	-26.3919
122.000000	75.021	-25.8669
124.099998	74.863	-25.0289
125.000000	74.800	-24.6567
126.500000	74.699	-24.0359
128.000000	74.601	-23.4215
131.500000	74.380	-21.9598
132.000000	74.350	-21.7442
134.000000	74.228	-20.8647
136.000000	74.104	-19.9541
138.000000	73.984	-19.0175
140.000000	73.873	-18.0591
143.000000	73.724	-16.5888
145.000000	73.640	-15.6001
147.500000	73.552	-14.3757
150.000000	73.480	-13.1738
152.500000	73.424	-11.9682
155.000000	73.383	-10.7656
157.500000	73.347	-9.6025
160.000000	73.320	-8.4935
162.500000	73.311	-7.4076
165.000000	73.325	-6.2956
167.500000	73.359	-5.1889
170.000000	73.407	-4.1218
172.500000	73.462	-3.0797
175.000000	73.522	-2.0591
177.500000	73.588	-1.0712
180.000000	73.657	-0.1113
182.500000	73.723	0.8261
185.000000	73.783	1.7215
187.500000	73.839	2.5596
190.000000	73.896	3.3589
192.500000	73.962	4.1539
195.000000	74.044	4.9544
197.500000	74.142	5.7459
200.000000	74.257	6.5132
203.000000	74.412	7.3759
206.000000	74.578	8.1597
209.000000	74.742	8.8914
212.000000	74.896	9.5904
214.000000	74.990	10.0428
218.000000	75.156	10.9421
220.000000	75.227	11.4080
224.000000	75.352	12.3667
227.000000	75.435	13.0696
230.000000	75.510	13.7424
233.000000	75.577	14.3788
236.000000	75.635	14.9910
240.000000	75.699	15.7987
243.000000	75.736	16.4031
247.000000	75.766	17.1948
250.000000	75.779	17.7692
254.000000	75.785	18.5048
258.000000	75.775	19.2181
262.000000	75.748	19.9367
265.000000	75.714	20.4855
269.000000	75.656	21.2254
272.000000	75.605	21.7761
276.000000	75.529	22.4866
280.000000	75.444	23.1675
285.000000	75.328	23.9909
290.000000	75.203	24.7799
295.000000	75.068	25.5230
300.000000	74.929	26.2259
304.000000	74.820	26.7697
307.000000	74.742	27.1602
311.000000	74.640	27.6580
315.000000	74.542	28.1293
320.000000	74.426	28.6609
325.000000	74.319	29.1450
330.000000	74.224	29.6138
335.000000	74.143	30.1025
340.000000	74.073	30.6545
345.000000	74.014	31.2463
350.000000	73.963	31.8425
355.000000	73.922	32.4669
360.000000	73.891	33.1750
365.000000	73.873	33.9989
370.000000	73.870	34.9096
375.000000	73.877	35.8691
382.000000	73.900	37.2590
387.000000	73.925	38.2680
395.000000	73.975	39.9114
400.000000	74.011	40.9465
406.000000	74.054	42.1574
412.000000	74.097	43.3258
418.000000	74.141	44.4450
425.000000	74.195	45.6630
431.000000	74.246	46.6089
437.000000	74.302	47.4259
444.000000	74.371	48.2116
450.000000	74.433	48.7743
455.000000	74.486	49.1806
462.000000	74.557	49.6618
468.000000	74.615	49.9960
475.000000	74.681	50.3146
482.000000	74.743	50.5849
487.000000	74.784	50.7578
494.000000	74.835	50.9734
500.000000	74.874	51.1338
508.000000	74.919	51.3234
515.000000	74.949	51.4911
522.000000	74.968	51.6808
530.000000	74.974	51.9286
538.000000	74.960	52.2127
545.000000	74.929	52.5180
552.000000	74.883	52.8927
560.000000	74.816	53.3890
570.000000	74.716	54.0838
580.000000	74.593	54.8605
590.000000	74.447	55.7382
600.000000	74.294	56.7139
608.000000	74.175	57.5407
615.000000	74.075	58.2945
622.000000	73.977	59.0914
630.000000	73.866	60.0603
640.000000	73.727	61.3145
650.000000	73.586	62.5758
660.000000	73.450	63.8582
670.000000	73.328	65.1516
680.000000	73.221	66.3998
690.000000	73.126	67.5921
700.000000	73.038	68.7671
710.000000	72.948	69.9407
720.000000	72.858	71.1236
730.000000	72.769	72.3123
740.000000	72.681	73.4848
750.000000	72.593	74.6527
762.000000	72.485	76.0990
775.000000	72.358	77.7530
788.000000	72.224	79.5495
800.000000	72.097	81.3366
812.000000	71.970	83.1900
825.000000	71.834	85.2234
838.000000	71.706	87.2769
850.000000	71.601	89.1806
862.000000	71.508	91.0638
875.000000	71.419	93.0602
885.000000	71.360	94.5585
900.000000	71.293	96.7402
912.000000	71.264	98.4442
925.000000	71.259	100.2504
938.000000	71.280	102.0027
950.000000	71.314	103.5757
962.000000	71.355	105.1373
975.000000	71.403	106.8543
988.000000	71.454	108.5761
1000.000000	71.502	110.1015
1015.000000	71.562	111.8838
1030.000000	71.623	113.5744
1044.000000	71.679	115.0952
1060.000000	71.738	116.7534
1075.000000	71.791	118.2366
1090.000000	71.847	119.6915
1106.000000	71.911	121.2234
1120.000000	71.970	122.5327
1138.000000	72.048	124.1230
1150.000000	72.102	125.1117
1172.000000	72.212	126.8107
1180.000000	72.255	127.3995
1206.000000	72.401	129.2096
1220.000000	72.482	130.1331
1241.000000	72.603	131.5024
1250.000000	72.654	132.0927
1265.000000	72.736	133.0805
1280.000000	72.812	134.0734
1315.000000	72.929	136.4126
1320.000000	72.935	136.7495
1340.000000	72.925	138.1197
1360.000000	72.860	139.5509
1380.000000	72.759	141.0569
1400.000000	72.650	142.6493
1430.000000	72.530	145.1658
1450.000000	72.499	146.8596
1475.000000	72.524	148.9669
1500.000000	72.605	151.0837
1525.000000	72.720	153.2042
1550.000000	72.857	155.3349
1575.000000	73.004	157.4281
1600.000000	73.156	159.4167
1625.000000	73.312	161.2856
1650.000000	73.472	163.0669
1675.000000	73.635	164.7749
1700.000000	73.799	166.4045
1725.000000	73.971	167.9349
1750.000000	74.151	169.3324
1775.000000	74.340	170.5759
1800.000000	74.529	171.6623
1825.000000	74.715	172.6028
1850.000000	74.899	173.4267
1875.000000	75.085	174.1700
1900.000000	75.275	174.8500
1925.000000	75.473	175.4905
1950.000000	75.682	176.1370
1975.000000	75.904	176.8128
2000.000000	76.140	177.4997
2030.000000	76.446	178.3294
2060.000000	76.765	179.1592
2090.000000	77.086	179.9508
2120.000000	77.398	-179.2885
2140.000000	77.598	-178.7892
2180.000000	77.976	-177.8097
2200.000000	78.153	-177.3324
2240.000000	78.480	-176.4018
2270.000000	78.697	-175.7268
2300.000000	78.889	-175.0835
2330.000000	79.059	-174.4860
2360.000000	79.209	-173.9407
2400.000000	79.387	-173.2814
2430.000000	79.510	-172.8130
2470.000000	79.668	-172.2006
2500.000000	79.785	-171.7617
2540.000000	79.944	-171.2493
2580.000000	80.104	-170.8723
2620.000000	80.254	-170.6283
2650.000000	80.355	-170.5167
2690.000000	80.475	-170.4458
2720.000000	80.554	-170.4550
2760.000000	80.643	-170.5580
2800.000000	80.706	-170.7357
2850.000000	80.745	-170.8969
2900.000000	80.766	-170.7822
2950.000000	80.806	-170.5830
3000.000000	80.839	-170.4732
3040.000000	80.860	-170.3757
3070.000000	80.871	-170.3743
3110.000000	80.867	-170.4683
3150.000000	80.834	-170.5552
3200.000000	80.765	-170.5341
3250.000000	80.678	-170.3500
3300.000000	80.581	-170.0237
3350.000000	80.477	-169.5658
3400.000000	80.366	-169.0068
3450.000000	80.250	-168.3738
3500.000000	80.134	-167.6689
3550.000000	80.019	-166.8694
3600.000000	79.907	-165.9612
3650.000000	79.806	-164.9586
3700.000000	79.722	-163.8867
3750.000000	79.656	-162.7520
3820.000000	79.590	-161.0789
3870.000000	79.560	-159.8305
3950.000000	79.540	-157.7504
4000.000000	79.541	-156.4097
4060.000000	79.551	-154.7774
4120.000000	79.569	-153.1300
4180.000000	79.594	-151.4850
4250.000000	79.636	-149.5902
4310.000000	79.694	-148.0068
4370.000000	79.783	-146.5040
4440.000000	79.940	-144.9065
4500.000000	80.120	-143.7055
4550.000000	80.301	-142.8542
4620.000000	80.593	-141.9578
4680.000000	80.869	-141.5271
4750.000000	81.203	-141.4630
4820.000000	81.525	-141.8680
4870.000000	81.735	-142.4268
4940.000000	81.989	-143.5402
5000.000000	82.160	-144.7258
5080.000000	82.315	-146.4889
5150.000000	82.387	-148.0825
5220.000000	82.412	-149.6256
5300.000000	82.400	-151.2738
5380.000000	82.354	-152.8372
5450.000000	82.285	-154.1635
5520.000000	82.190	-155.4239
5600.000000	82.061	-156.7133
5700.000000	81.896	-158.0575
5800.000000	81.759	-159.2593
5900.000000	81.647	-160.5214
6000.000000	81.533	-161.8963
6080.000000	81.421	-163.0391
6150.000000	81.301	-164.0222
6220.000000	81.160	-164.9458
6300.000000	80.984	-165.8902
6400.000000	80.759	-166.9025
6500.000000	80.552	-167.8224
6600.000000	80.377	-168.7968
6700.000000	80.241	-169.9627
6800.000000	80.136	-171.4723
6900.000000	80.040	-173.4427
7000.000000	79.926	-175.9435
7100.000000	79.770	-179.0046
7200.000000	79.545	177.4017
7300.000000	79.211	173.4068
7400.000000	78.732	169.2825
7500.000000	78.092	165.3900
7620.000000	77.116	161.5838
7750.000000	75.846	159.1790
7880.000000	74.397	159.0242
8000.000000	72.937	161.4380
8120.000000	71.478	166.7259
8250.000000	70.108	175.2819
8380.000000	69.153	-174.4305
8500.000000	68.742	-164.5469
8620.000000	68.796	-155.4449
8750.000000	69.258	-147.5609
8850.000000	69.777	-143.2014
9000.000000	70.626	-139.3348
9120.000000	71.255	-138.2066
9250.000000	71.808	-138.4423
9380.000000	72.196	-139.6249
9500.000000	72.410	-141.1113
9620.000000	72.504	-142.6725
9750.000000	72.497	-144.2019
9880.000000	72.409	-145.3893
10000.000000	72.284	-146.1094
10150.000000	72.104	-146.4850
10300.000000	71.925	-146.3060
10440.000000	71.781	-145.7031
10600.000000	71.663	-144.6200
10750.000000	71.617	-143.3492
10900.000000	71.652	-141.9434
11060.000000	71.785	-140.4055
11200.000000	71.983	-139.0906
11380.000000	72.356	-137.5262
11500.000000	72.686	-136.6387
11720.000000	73.492	-135.5965
11800.000000	73.856	-135.5018
12060.000000	75.295	-136.9595
12200.000000	76.193	-139.3713
12410.000000	77.554	-145.9187
12500.000000	78.079	-149.9269
12650.000000	78.772	-158.1481
12800.000000	79.127	-167.9144
13150.000000	78.206	168.0998
13200.000000	77.876	165.0768
13400.000000	76.173	155.1091
13600.000000	74.089	149.1633
13800.000000	71.946	147.2603
14000.000000	70.029	148.8417
14300.000000	68.012	155.9026
14500.000000	67.378	162.3042
14750.000000	67.369	170.3082
15000.000000	68.052	176.3712
15250.000000	69.147	178.8792
15500.000000	70.357	177.1528
15750.000000	71.473	171.3224
16000.000000	72.369	162.1131
16250.000000	72.976	150.5785
16500.000000	73.252	137.7760
16750.000000	73.177	124.5483
17000.000000	72.744	111.5927
17250.000000	71.960	99.5823
17500.000000	70.882	89.1696
17750.000000	69.615	80.8002
18000.000000	68.279	74.5523
18250.000000	66.971	70.1803
18500.000000	65.744	67.2604
18750.000000	64.601	65.3393
19000.000000	63.518	63.9778
19250.000000	62.462	62.7570
19500.000000	61.413	61.3599
19750.000000	60.442	59.7669
20000.000000	59.821	58.5611
