* Measurement data measured by REW V5.31.3
* Source: Microphone (6- USB Sound Device        ), MICROPHONE (Master Volume), L, volume: 0.700
* Format: 256k Log Swept Sine, 1 sweep at -12.0 dBFS with no timing reference
* Dated: 04-Mar-2025 19:19:52
* REW Settings:
*  C-weighting compensation: Off
*  Target level: 75.0 dB
* Note: 
* Measurement: HFBP4 BB
* Smoothing: 1/12 octave
* Frequency Step: 1/48 octave
* Start Frequency: 20.300 Hz
*
* Freq(Hz)	SPL(dB)	Phase(degrees)
20.299999	83.569	-15.1852
20.600000	83.558	-15.0339
20.900000	83.545	-14.8524
21.200001	83.532	-14.6656
21.400000	83.523	-14.5403
21.799999	83.507	-14.2833
22.000000	83.500	-14.1502
22.400000	83.493	-13.8781
22.700001	83.492	-13.6762
23.000000	83.494	-13.4841
23.299999	83.498	-13.3071
23.600000	83.503	-13.1478
24.000000	83.511	-12.9634
24.299999	83.517	-12.8454
24.700001	83.528	-12.7123
25.000000	83.538	-12.6272
25.400000	83.554	-12.5246
25.799999	83.574	-12.4229
26.200001	83.597	-12.3144
26.500000	83.617	-12.2307
26.900000	83.646	-12.1273
27.200001	83.669	-12.0659
27.600000	83.700	-12.0169
28.000000	83.730	-12.0099
28.500000	83.767	-12.0538
29.000000	83.803	-12.1414
29.500000	83.843	-12.2593
30.000000	83.887	-12.3980
30.400000	83.924	-12.5190
30.700001	83.952	-12.6145
31.100000	83.990	-12.7501
31.500000	84.026	-12.9002
32.000000	84.071	-13.1185
32.500000	84.115	-13.3778
33.000000	84.156	-13.6758
33.500000	84.196	-14.0033
34.000000	84.235	-14.3512
34.500000	84.274	-14.7144
35.000000	84.310	-15.0918
35.500000	84.341	-15.4845
36.000000	84.366	-15.8939
36.500000	84.386	-16.3203
37.000000	84.401	-16.7629
37.500000	84.414	-17.2209
38.200001	84.427	-17.8883
38.700001	84.435	-18.3829
39.500000	84.444	-19.1965
40.000000	84.447	-19.7111
40.599998	84.445	-20.3255
41.200001	84.438	-20.9278
41.799999	84.428	-21.5116
42.500000	84.412	-22.1730
43.099998	84.397	-22.7389
43.700001	84.380	-23.3184
44.400002	84.358	-24.0121
45.000000	84.335	-24.6050
45.500000	84.310	-25.0837
46.200001	84.267	-25.7189
46.799999	84.226	-26.2380
47.500000	84.179	-26.8371
48.200001	84.135	-27.4408
48.700001	84.106	-27.8651
49.400002	84.064	-28.4275
50.000000	84.022	-28.8712
50.799999	83.950	-29.4170
51.500000	83.874	-29.8683
52.200001	83.794	-30.3088
53.000000	83.702	-30.8075
53.799999	83.614	-31.2987
54.500000	83.539	-31.7155
55.200001	83.463	-32.1109
56.000000	83.373	-32.5259
57.000000	83.258	-33.0015
58.000000	83.144	-33.4625
59.000000	83.030	-33.9047
60.000000	82.916	-34.3200
60.799999	82.824	-34.6364
61.500000	82.741	-34.8945
62.200001	82.657	-35.1246
63.000000	82.560	-35.3464
64.000000	82.443	-35.5624
65.000000	82.329	-35.7132
66.000000	82.216	-35.8113
67.000000	82.101	-35.8947
68.000000	81.986	-36.0105
69.000000	81.869	-36.1583
70.000000	81.750	-36.2581
71.000000	81.630	-36.2598
72.000000	81.515	-36.2167
73.000000	81.407	-36.1930
74.000000	81.301	-36.1877
75.000000	81.195	-36.1676
76.199997	81.065	-36.1052
77.500000	80.925	-35.9998
78.800003	80.787	-35.8662
80.000000	80.663	-35.7304
81.199997	80.539	-35.5953
82.500000	80.405	-35.4329
83.800003	80.270	-35.2135
85.000000	80.145	-34.9760
86.199997	80.019	-34.7405
87.500000	79.879	-34.4869
88.500000	79.772	-34.2792
90.000000	79.612	-33.9413
91.199997	79.484	-33.6605
92.500000	79.346	-33.3543
93.800003	79.206	-33.0394
95.000000	79.075	-32.7352
96.199997	78.946	-32.4200
97.500000	78.810	-32.0737
98.800003	78.681	-31.7320
100.000000	78.566	-31.4192
101.500000	78.423	-31.0300
103.000000	78.280	-30.6449
104.400002	78.143	-30.2797
106.000000	77.982	-29.8450
107.500000	77.830	-29.4181
109.000000	77.683	-28.9755
110.599998	77.532	-28.4910
112.000000	77.405	-28.0590
113.800003	77.250	-27.4792
115.000000	77.150	-27.0733
117.199997	76.967	-26.3018
118.000000	76.900	-26.0131
120.599998	76.689	-25.0807
122.000000	76.582	-24.5997
124.099998	76.428	-23.8689
125.000000	76.364	-23.5378
126.500000	76.257	-22.9629
128.000000	76.152	-22.3783
131.500000	75.927	-21.0211
132.000000	75.897	-20.8243
134.000000	75.780	-20.0156
136.000000	75.671	-19.1682
138.000000	75.575	-18.2951
140.000000	75.486	-17.4188
143.000000	75.358	-16.1414
145.000000	75.283	-15.2847
147.500000	75.200	-14.1637
150.000000	75.128	-13.0185
152.500000	75.072	-11.8818
155.000000	75.028	-10.7825
157.500000	74.998	-9.7049
160.000000	74.989	-8.6074
162.500000	75.002	-7.5045
165.000000	75.025	-6.4499
167.500000	75.052	-5.4499
170.000000	75.086	-4.4596
172.500000	75.128	-3.4538
175.000000	75.177	-2.4553
177.500000	75.229	-1.4972
180.000000	75.281	-0.5941
182.500000	75.327	0.2602
185.000000	75.361	1.0993
187.500000	75.386	1.9608
190.000000	75.410	2.8461
192.500000	75.445	3.7263
195.000000	75.495	4.5706
197.500000	75.560	5.3689
200.000000	75.635	6.1275
203.000000	75.739	6.9921
206.000000	75.853	7.8032
209.000000	75.970	8.5542
212.000000	76.077	9.2435
214.000000	76.138	9.6818
218.000000	76.232	10.5602
220.000000	76.266	11.0068
224.000000	76.318	11.8972
227.000000	76.341	12.5618
230.000000	76.351	13.2293
233.000000	76.349	13.8968
236.000000	76.335	14.5606
240.000000	76.302	15.4188
243.000000	76.264	16.0205
247.000000	76.200	16.7768
250.000000	76.144	17.3297
254.000000	76.063	18.0601
258.000000	75.973	18.7788
262.000000	75.875	19.4776
265.000000	75.799	19.9801
269.000000	75.692	20.6388
272.000000	75.608	21.1402
276.000000	75.492	21.8172
280.000000	75.373	22.4968
285.000000	75.226	23.3505
290.000000	75.083	24.1980
295.000000	74.945	25.0079
300.000000	74.815	25.7580
304.000000	74.714	26.3499
307.000000	74.641	26.8084
311.000000	74.548	27.4276
315.000000	74.460	28.0355
320.000000	74.358	28.7865
325.000000	74.270	29.5582
330.000000	74.200	30.3406
335.000000	74.147	31.1053
340.000000	74.107	31.8628
345.000000	74.078	32.6456
350.000000	74.054	33.4492
355.000000	74.032	34.2531
360.000000	74.015	35.0781
365.000000	74.006	35.9283
370.000000	74.002	36.7876
375.000000	74.003	37.6680
382.000000	74.018	38.8951
387.000000	74.038	39.7240
395.000000	74.074	40.9767
400.000000	74.096	41.7309
406.000000	74.117	42.6200
412.000000	74.130	43.4820
418.000000	74.142	44.2897
425.000000	74.159	45.1488
431.000000	74.172	45.8283
437.000000	74.180	46.4772
444.000000	74.188	47.1825
450.000000	74.196	47.7307
455.000000	74.202	48.1416
462.000000	74.209	48.6530
468.000000	74.212	49.0528
475.000000	74.210	49.4850
482.000000	74.204	49.8980
487.000000	74.199	50.1864
494.000000	74.190	50.5755
500.000000	74.181	50.9010
508.000000	74.168	51.3405
515.000000	74.150	51.7195
522.000000	74.125	52.0810
530.000000	74.088	52.5004
538.000000	74.044	52.9514
545.000000	73.997	53.3568
552.000000	73.944	53.7636
560.000000	73.876	54.2511
570.000000	73.783	54.9197
580.000000	73.680	55.6743
590.000000	73.571	56.4881
600.000000	73.457	57.3271
608.000000	73.364	58.0270
615.000000	73.279	58.6796
622.000000	73.192	59.3805
630.000000	73.094	60.2344
640.000000	72.975	61.3564
650.000000	72.861	62.5401
660.000000	72.754	63.7800
670.000000	72.661	65.0394
680.000000	72.576	66.2976
690.000000	72.495	67.5422
700.000000	72.417	68.7727
710.000000	72.343	70.0020
720.000000	72.270	71.2382
730.000000	72.194	72.4805
740.000000	72.119	73.7470
750.000000	72.045	75.0496
762.000000	71.955	76.6462
775.000000	71.850	78.4202
788.000000	71.745	80.2717
800.000000	71.654	82.0648
812.000000	71.569	83.9203
825.000000	71.480	85.9581
838.000000	71.394	87.9639
850.000000	71.319	89.7449
862.000000	71.253	91.4759
875.000000	71.195	93.3528
885.000000	71.161	94.8056
900.000000	71.123	96.9890
912.000000	71.108	98.7337
925.000000	71.108	100.6124
938.000000	71.125	102.4758
950.000000	71.155	104.1588
962.000000	71.196	105.7879
975.000000	71.253	107.5147
988.000000	71.319	109.2366
1000.000000	71.384	110.8157
1015.000000	71.461	112.7215
1030.000000	71.536	114.4813
1044.000000	71.609	115.9936
1060.000000	71.697	117.6148
1075.000000	71.784	119.0654
1090.000000	71.869	120.4709
1106.000000	71.954	121.9455
1120.000000	72.024	123.2140
1138.000000	72.115	124.7801
1150.000000	72.179	125.7729
1172.000000	72.300	127.5172
1180.000000	72.346	128.1363
1206.000000	72.501	130.0766
1220.000000	72.587	131.0745
1241.000000	72.724	132.5320
1250.000000	72.786	133.1434
1265.000000	72.891	134.1448
1280.000000	72.995	135.1282
1315.000000	73.180	137.3838
1320.000000	73.196	137.7115
1340.000000	73.228	139.0732
1360.000000	73.211	140.5194
1380.000000	73.162	142.0297
1400.000000	73.103	143.6152
1430.000000	73.048	146.1328
1450.000000	73.050	147.8690
1475.000000	73.100	150.0547
1500.000000	73.199	152.2446
1525.000000	73.332	154.4039
1550.000000	73.475	156.5087
1575.000000	73.618	158.5637
1600.000000	73.759	160.5560
1625.000000	73.901	162.4779
1650.000000	74.050	164.3210
1675.000000	74.206	166.0797
1700.000000	74.372	167.7376
1725.000000	74.548	169.2816
1750.000000	74.732	170.6965
1775.000000	74.920	171.9413
1800.000000	75.108	172.9877
1825.000000	75.293	173.8622
1850.000000	75.477	174.6503
1875.000000	75.659	175.4205
1900.000000	75.838	176.1725
1925.000000	76.019	176.9015
1950.000000	76.202	177.6174
1975.000000	76.394	178.3325
2000.000000	76.595	179.0509
2030.000000	76.849	179.8985
2060.000000	77.110	-179.2953
2090.000000	77.372	-178.5336
2120.000000	77.630	-177.7939
2140.000000	77.797	-177.3029
2180.000000	78.116	-176.3336
2200.000000	78.265	-175.8658
2240.000000	78.546	-174.9537
2270.000000	78.738	-174.2829
2300.000000	78.913	-173.6345
2330.000000	79.069	-173.0240
2360.000000	79.209	-172.4617
2400.000000	79.381	-171.7743
2430.000000	79.502	-171.2928
2470.000000	79.659	-170.6882
2500.000000	79.774	-170.2582
2540.000000	79.927	-169.7302
2580.000000	80.082	-169.2786
2620.000000	80.237	-168.9481
2650.000000	80.348	-168.8069
2690.000000	80.483	-168.7584
2720.000000	80.570	-168.8076
2760.000000	80.660	-168.9526
2800.000000	80.719	-169.1371
2850.000000	80.755	-169.2771
2900.000000	80.774	-169.1267
2950.000000	80.812	-168.8893
3000.000000	80.840	-168.7580
3040.000000	80.857	-168.6472
3070.000000	80.867	-168.6339
3110.000000	80.861	-168.7135
3150.000000	80.827	-168.7900
3200.000000	80.758	-168.7648
3250.000000	80.671	-168.5866
3300.000000	80.573	-168.2639
3350.000000	80.469	-167.7940
3400.000000	80.360	-167.1891
3450.000000	80.248	-166.4821
3500.000000	80.136	-165.6968
3550.000000	80.024	-164.8452
3600.000000	79.914	-163.9285
3650.000000	79.813	-162.9274
3700.000000	79.727	-161.8409
3750.000000	79.658	-160.6870
3820.000000	79.594	-158.9761
3870.000000	79.568	-157.6974
3950.000000	79.550	-155.5881
4000.000000	79.552	-154.2416
4060.000000	79.564	-152.5963
4120.000000	79.581	-150.9340
4180.000000	79.603	-149.2681
4250.000000	79.644	-147.3356
4310.000000	79.701	-145.7124
4370.000000	79.789	-144.1619
4440.000000	79.939	-142.5139
4500.000000	80.116	-141.2859
4550.000000	80.299	-140.4179
4620.000000	80.599	-139.4916
4680.000000	80.881	-139.0192
4750.000000	81.215	-138.8961
4820.000000	81.534	-139.2532
4870.000000	81.743	-139.7857
4940.000000	81.997	-140.8569
5000.000000	82.169	-141.9966
5080.000000	82.328	-143.7037
5150.000000	82.406	-145.2558
5220.000000	82.435	-146.7613
5300.000000	82.426	-148.3778
5380.000000	82.383	-149.9182
5450.000000	82.317	-151.2294
5520.000000	82.223	-152.4673
5600.000000	82.094	-153.7138
5700.000000	81.931	-154.9977
5800.000000	81.793	-156.1465
5900.000000	81.682	-157.3615
6000.000000	81.573	-158.6971
6080.000000	81.465	-159.8071
6150.000000	81.350	-160.7591
6220.000000	81.214	-161.6538
6300.000000	81.042	-162.5805
6400.000000	80.825	-163.6035
6500.000000	80.630	-164.5206
6600.000000	80.468	-165.4505
6700.000000	80.341	-166.5612
6800.000000	80.243	-168.0301
6900.000000	80.154	-169.9953
7000.000000	80.051	-172.5072
7100.000000	79.909	-175.5777
7200.000000	79.698	-179.1851
7300.000000	79.378	176.7942
7400.000000	78.915	172.6259
7500.000000	78.292	168.6696
7620.000000	77.343	164.7767
7750.000000	76.103	162.2597
7880.000000	74.687	161.9624
8000.000000	73.261	164.1664
8120.000000	71.835	169.1072
8250.000000	70.492	177.1448
8380.000000	69.544	-173.1449
8500.000000	69.118	-163.7602
8620.000000	69.136	-155.0696
8750.000000	69.550	-147.4891
8850.000000	70.034	-143.2737
9000.000000	70.841	-139.5573
9120.000000	71.443	-138.5201
9250.000000	71.971	-138.8167
9380.000000	72.338	-140.0521
9500.000000	72.536	-141.5965
9620.000000	72.616	-143.2074
9750.000000	72.598	-144.7711
9880.000000	72.500	-145.9741
10000.000000	72.365	-146.7004
10150.000000	72.175	-147.0982
10300.000000	71.990	-146.9824
10440.000000	71.842	-146.4816
10600.000000	71.721	-145.5520
10750.000000	71.677	-144.4381
10900.000000	71.712	-143.1722
11060.000000	71.844	-141.7298
11200.000000	72.043	-140.4662
11380.000000	72.418	-138.9662
11500.000000	72.749	-138.1305
11720.000000	73.553	-137.2061
11800.000000	73.916	-137.1658
12060.000000	75.344	-138.8256
12200.000000	76.233	-141.3461
12410.000000	77.583	-148.0617
12500.000000	78.104	-152.1450
12650.000000	78.793	-160.4870
12800.000000	79.144	-170.3558
13150.000000	78.199	165.5200
13200.000000	77.865	162.4861
13400.000000	76.153	152.4775
13600.000000	74.068	146.4923
13800.000000	71.930	144.5544
14000.000000	70.022	146.0902
14300.000000	68.014	152.9647
14500.000000	67.379	159.2014
14750.000000	67.368	167.0682
15000.000000	68.059	173.0260
15250.000000	69.155	175.4118
15500.000000	70.360	173.5425
15750.000000	71.470	167.5886
16000.000000	72.363	158.2954
16250.000000	72.967	146.6976
16500.000000	73.240	133.8020
16750.000000	73.165	120.4420
17000.000000	72.733	107.3432
17250.000000	71.956	95.2030
17500.000000	70.883	84.7081
17750.000000	69.615	76.2491
18000.000000	68.276	69.8634
18250.000000	66.969	65.3309
18500.000000	65.746	62.2667
18750.000000	64.604	60.2115
19000.000000	63.521	58.7205
19250.000000	62.468	57.3909
19500.000000	61.433	55.9033
19750.000000	60.488	54.2433
20000.000000	59.891	53.0044
