* Measurement data measured by REW V5.31.3
* Source: Microphone (4- USB Audio Device), MICROPHONE (Master Volume), L, volume: 0.250
* Format: 256k Log Swept Sine, 1 sweep at -12.0 dBFS with no timing reference
* Dated: 03-Aug-2024 12:20:59
* REW Settings:
*  C-weighting compensation: Off
*  Target level: 75.0 dB
* Note: 
* Measurement: Huawei Freebuds 5 R
* Smoothing: 1/12 octave
* Frequency Step: 1/48 octave
* Start Frequency: 20.300 Hz
*
* Freq(Hz)	SPL(dB)	Phase(degrees)
20.299999	68.029	-165.1038
20.600000	68.253	-165.1374
20.900000	68.567	-165.0957
21.200001	68.945	-165.0703
21.400000	69.217	-165.1368
21.799999	69.764	-165.5776
22.000000	70.021	-165.9340
22.400000	70.476	-166.7356
22.700001	70.771	-167.2360
23.000000	71.049	-167.5479
23.299999	71.338	-167.6968
23.600000	71.659	-167.8175
24.000000	72.138	-168.2568
24.299999	72.514	-168.9645
24.700001	72.991	-170.4266
25.000000	73.308	-171.7684
25.400000	73.670	-173.5652
25.799999	73.987	-175.0549
26.200001	74.298	-176.0718
26.500000	74.547	-176.5547
26.900000	74.905	-176.9806
27.200001	75.186	-177.2513
27.600000	75.559	-177.6614
28.000000	75.914	-178.1674
28.500000	76.328	-178.9038
29.000000	76.731	-179.6995
29.500000	77.150	179.4450
30.000000	77.601	178.4572
30.400000	77.976	177.5148
30.700001	78.255	176.7069
31.100000	78.610	175.5151
31.500000	78.934	174.2471
32.000000	79.290	172.6720
32.500000	79.604	171.2162
33.000000	79.902	169.9174
33.500000	80.201	168.7348
34.000000	80.504	167.5996
34.500000	80.805	166.4607
35.000000	81.092	165.3040
35.500000	81.360	164.1511
36.000000	81.612	163.0448
36.500000	81.863	162.0196
37.000000	82.126	161.0718
37.500000	82.406	160.1649
38.200001	82.811	158.9239
38.700001	83.098	158.0918
39.500000	83.561	156.8716
40.000000	83.865	156.0380
40.599998	84.231	154.7656
41.200001	84.565	153.2155
41.799999	84.854	151.6456
42.500000	85.176	150.0981
43.099998	85.478	148.9840
43.700001	85.802	147.8604
44.400002	86.166	146.3380
45.000000	86.428	144.8046
45.500000	86.595	143.4076
46.200001	86.758	141.4576
46.799999	86.878	139.9602
47.500000	87.070	138.3705
48.200001	87.334	136.6497
48.700001	87.530	135.2664
49.400002	87.771	133.2675
50.000000	87.944	131.6444
50.799999	88.158	129.5948
51.500000	88.342	127.7902
52.200001	88.523	125.9600
53.000000	88.725	123.8922
53.799999	88.921	121.8642
54.500000	89.083	120.1081
55.200001	89.240	118.3399
56.000000	89.411	116.2774
57.000000	89.604	113.6940
58.000000	89.778	111.2146
59.000000	89.947	108.8350
60.000000	90.113	106.4921
60.799999	90.242	104.6186
61.500000	90.350	102.9758
62.200001	90.451	101.3464
63.000000	90.557	99.5315
64.000000	90.680	97.3528
65.000000	90.793	95.2462
66.000000	90.898	93.1710
67.000000	90.993	91.1037
68.000000	91.080	89.0706
69.000000	91.158	87.1049
70.000000	91.230	85.1914
71.000000	91.294	83.3024
72.000000	91.352	81.4412
73.000000	91.406	79.6379
74.000000	91.455	77.9151
75.000000	91.495	76.2679
76.199997	91.529	74.3585
77.500000	91.551	72.3473
78.800003	91.564	70.4033
80.000000	91.571	68.6669
81.199997	91.575	66.9771
82.500000	91.575	65.2198
83.800003	91.565	63.5281
85.000000	91.545	62.0074
86.199997	91.518	60.5587
87.500000	91.488	59.0728
88.500000	91.465	57.9583
90.000000	91.427	56.3280
91.199997	91.390	55.0382
92.500000	91.350	53.5851
93.800003	91.318	52.1143
95.000000	91.280	50.8745
96.199997	91.220	49.8314
97.500000	91.140	48.8887
98.800003	91.063	48.0162
100.000000	90.998	47.2020
101.500000	90.922	46.1438
103.000000	90.848	45.0788
104.400002	90.782	44.1318
106.000000	90.715	43.1452
107.500000	90.657	42.3130
109.000000	90.599	41.5248
110.599998	90.537	40.6825
112.000000	90.482	39.9427
113.800003	90.412	39.0237
115.000000	90.367	38.4568
117.199997	90.293	37.5108
118.000000	90.270	37.1788
120.599998	90.202	36.0752
122.000000	90.163	35.4718
124.099998	90.096	34.5915
125.000000	90.065	34.2354
126.500000	90.014	33.6805
128.000000	89.961	33.1662
131.500000	89.851	32.0513
132.000000	89.837	31.9016
134.000000	89.786	31.3209
136.000000	89.748	30.7325
138.000000	89.720	30.1004
140.000000	89.700	29.4192
143.000000	89.669	28.3154
145.000000	89.635	27.5049
147.500000	89.577	26.4309
150.000000	89.513	25.3423
152.500000	89.450	24.2506
155.000000	89.384	23.1558
157.500000	89.303	22.0463
160.000000	89.203	20.9247
162.500000	89.089	19.8041
165.000000	88.967	18.6887
167.500000	88.840	17.6107
170.000000	88.704	16.6140
172.500000	88.554	15.6569
175.000000	88.386	14.6984
177.500000	88.199	13.7324
180.000000	87.995	12.7744
182.500000	87.773	11.9003
185.000000	87.535	11.1725
187.500000	87.290	10.5786
190.000000	87.046	10.0995
192.500000	86.811	9.7562
195.000000	86.585	9.5586
197.500000	86.366	9.4753
200.000000	86.153	9.4662
203.000000	85.901	9.5107
206.000000	85.651	9.6251
209.000000	85.404	9.8481
212.000000	85.161	10.1636
214.000000	85.004	10.4174
218.000000	84.708	11.0566
220.000000	84.574	11.4420
224.000000	84.337	12.3138
227.000000	84.183	13.0168
230.000000	84.047	13.7286
233.000000	83.928	14.4327
236.000000	83.819	15.0928
240.000000	83.681	15.9024
243.000000	83.577	16.4831
247.000000	83.439	17.2039
250.000000	83.339	17.6991
254.000000	83.207	18.3059
258.000000	83.066	18.8466
262.000000	82.917	19.3519
265.000000	82.797	19.7560
269.000000	82.621	20.3429
272.000000	82.476	20.8140
276.000000	82.270	21.5022
280.000000	82.054	22.2838
285.000000	81.780	23.3716
290.000000	81.503	24.5958
295.000000	81.231	26.0194
300.000000	80.969	27.6323
304.000000	80.769	29.0349
307.000000	80.625	30.1407
311.000000	80.446	31.6856
315.000000	80.285	33.2819
320.000000	80.114	35.2734
325.000000	79.968	37.2462
330.000000	79.847	39.2069
335.000000	79.743	41.1174
340.000000	79.648	42.9400
345.000000	79.565	44.6572
350.000000	79.492	46.2432
355.000000	79.417	47.7140
360.000000	79.330	49.1316
365.000000	79.231	50.5543
370.000000	79.126	51.9847
375.000000	79.018	53.4185
382.000000	78.862	55.5151
387.000000	78.742	57.0932
395.000000	78.549	59.7267
400.000000	78.445	61.4856
406.000000	78.351	63.6974
412.000000	78.286	65.9384
418.000000	78.243	68.1610
425.000000	78.216	70.6389
431.000000	78.211	72.5870
437.000000	78.214	74.3771
444.000000	78.205	76.3400
450.000000	78.178	77.9391
455.000000	78.145	79.2038
462.000000	78.091	80.9203
468.000000	78.036	82.4159
475.000000	77.961	84.2258
482.000000	77.876	86.1210
487.000000	77.814	87.5311
494.000000	77.733	89.5935
500.000000	77.676	91.4268
508.000000	77.628	93.9039
515.000000	77.616	96.0308
522.000000	77.637	98.0622
530.000000	77.697	100.2698
538.000000	77.780	102.3962
545.000000	77.857	104.1949
552.000000	77.917	105.9194
560.000000	77.957	107.7489
570.000000	77.973	109.8278
580.000000	77.972	111.7762
590.000000	77.975	113.7749
600.000000	77.997	115.8829
608.000000	78.042	117.5643
615.000000	78.103	118.9586
622.000000	78.180	120.2483
630.000000	78.279	121.5620
640.000000	78.394	122.9484
650.000000	78.482	124.1297
660.000000	78.534	125.2482
670.000000	78.559	126.4559
680.000000	78.571	127.9488
690.000000	78.594	129.7821
700.000000	78.659	131.8060
710.000000	78.769	133.7824
720.000000	78.903	135.5814
730.000000	79.043	137.1857
740.000000	79.179	138.6182
750.000000	79.301	139.9560
762.000000	79.425	141.6188
775.000000	79.542	143.6392
788.000000	79.664	145.9292
800.000000	79.801	148.1765
812.000000	79.959	150.3394
825.000000	80.130	152.4180
838.000000	80.277	154.1976
850.000000	80.376	155.7086
862.000000	80.446	157.2806
875.000000	80.510	159.2624
885.000000	80.572	161.0393
900.000000	80.720	163.9875
912.000000	80.897	166.3668
925.000000	81.125	168.7204
938.000000	81.355	170.7680
950.000000	81.551	172.4644
962.000000	81.734	174.0980
975.000000	81.935	175.9343
988.000000	82.161	177.8705
1000.000000	82.401	179.6610
1015.000000	82.732	-178.2727
1030.000000	83.060	-176.4559
1044.000000	83.336	-174.9121
1060.000000	83.627	-173.1738
1075.000000	83.909	-171.4416
1090.000000	84.221	-169.6088
1106.000000	84.583	-167.7414
1120.000000	84.903	-166.3913
1138.000000	85.283	-165.0508
1150.000000	85.508	-164.2720
1172.000000	85.895	-162.8297
1180.000000	86.038	-162.2947
1206.000000	86.515	-160.7683
1220.000000	86.756	-160.2113
1241.000000	87.056	-159.6836
1250.000000	87.160	-159.4896
1265.000000	87.311	-159.1074
1280.000000	87.445	-158.6370
1315.000000	87.709	-157.6716
1320.000000	87.736	-157.5864
1340.000000	87.806	-157.3301
1360.000000	87.819	-156.9878
1380.000000	87.812	-156.4095
1400.000000	87.820	-155.6954
1430.000000	87.839	-154.6055
1450.000000	87.844	-153.8622
1475.000000	87.885	-152.9130
1500.000000	87.994	-152.2982
1525.000000	88.113	-152.3242
1550.000000	88.184	-152.8324
1575.000000	88.223	-153.5640
1600.000000	88.250	-154.5369
1625.000000	88.238	-155.7224
1650.000000	88.171	-156.8036
1675.000000	88.083	-157.5920
1700.000000	87.999	-158.2241
1725.000000	87.905	-158.8287
1750.000000	87.794	-159.2874
1775.000000	87.701	-159.6122
1800.000000	87.649	-160.0302
1825.000000	87.625	-160.5632
1850.000000	87.635	-160.9340
1875.000000	87.711	-160.9607
1900.000000	87.863	-160.7279
1925.000000	88.068	-160.2320
1950.000000	88.319	-159.3900
1975.000000	88.622	-158.3107
2000.000000	88.965	-157.1887
2030.000000	89.400	-155.8242
2060.000000	89.860	-154.4680
2090.000000	90.334	-153.5108
2120.000000	90.782	-153.2433
2140.000000	91.061	-153.4047
2180.000000	91.594	-154.3300
2200.000000	91.842	-154.9894
2240.000000	92.273	-156.3756
2270.000000	92.536	-157.3508
2300.000000	92.741	-158.2057
2330.000000	92.893	-158.7653
2360.000000	93.031	-158.9138
2400.000000	93.261	-158.9287
2430.000000	93.451	-159.2838
2470.000000	93.653	-160.2437
2500.000000	93.752	-161.1493
2540.000000	93.831	-162.4200
2580.000000	93.879	-163.7195
2620.000000	93.904	-164.9655
2650.000000	93.912	-165.7682
2690.000000	93.910	-166.6662
2720.000000	93.894	-167.2379
2760.000000	93.855	-167.8821
2800.000000	93.803	-168.3777
2850.000000	93.745	-168.6673
2900.000000	93.756	-168.7009
2950.000000	93.835	-169.0014
3000.000000	93.889	-169.7929
3040.000000	93.896	-170.5971
3070.000000	93.891	-171.2180
3110.000000	93.883	-171.9937
3150.000000	93.878	-172.6903
3200.000000	93.873	-173.5246
3250.000000	93.864	-174.4044
3300.000000	93.848	-175.4299
3350.000000	93.819	-176.6553
3400.000000	93.778	-178.0257
3450.000000	93.733	-179.3811
3500.000000	93.689	179.3449
3550.000000	93.644	178.0486
3600.000000	93.590	176.5287
3650.000000	93.527	174.7121
3700.000000	93.459	172.6771
3750.000000	93.389	170.5368
3820.000000	93.300	167.6092
3870.000000	93.251	165.6871
3950.000000	93.191	162.6063
4000.000000	93.153	160.3986
4060.000000	93.105	157.4543
4120.000000	93.057	154.4877
4180.000000	93.018	151.8281
4250.000000	92.973	149.1436
4310.000000	92.917	147.0071
4370.000000	92.836	144.9405
4440.000000	92.710	142.5488
4500.000000	92.570	140.3481
4550.000000	92.428	138.3608
4620.000000	92.201	135.6194
4680.000000	91.992	133.5768
4750.000000	91.725	131.5829
4820.000000	91.423	129.8588
4870.000000	91.185	128.7252
4940.000000	90.818	127.2062
5000.000000	90.474	125.9000
5080.000000	89.974	124.0061
5150.000000	89.503	122.1310
5220.000000	89.010	120.1576
5300.000000	88.430	117.9739
5380.000000	87.830	115.9249
5450.000000	87.289	114.4117
5520.000000	86.750	113.4889
5600.000000	86.151	113.3411
5700.000000	85.427	114.2864
5800.000000	84.717	116.4009
5900.000000	84.040	119.9756
6000.000000	83.420	124.9526
6080.000000	82.978	129.7046
6150.000000	82.636	134.2430
6220.000000	82.340	139.0485
6300.000000	82.056	144.8755
6400.000000	81.800	152.9685
6500.000000	81.695	162.3406
6600.000000	81.773	172.5609
6700.000000	82.009	-177.5365
6800.000000	82.362	-168.6633
6900.000000	82.818	-160.9549
7000.000000	83.370	-154.3418
7100.000000	84.006	-148.4811
7200.000000	84.709	-142.9341
7300.000000	85.456	-137.6465
7400.000000	86.218	-133.1416
7500.000000	86.944	-130.1866
7620.000000	87.691	-129.3012
7750.000000	88.282	-131.5192
7880.000000	88.602	-136.2105
8000.000000	88.638	-141.5545
8120.000000	88.451	-146.7833
8250.000000	88.074	-151.6413
8380.000000	87.611	-155.3787
8500.000000	87.179	-157.7808
8620.000000	86.773	-159.5253
8750.000000	86.365	-161.3590
8850.000000	86.076	-163.0637
9000.000000	85.698	-166.2329
9120.000000	85.471	-169.0203
9250.000000	85.329	-171.9001
9380.000000	85.295	-174.6520
9500.000000	85.325	-177.2928
9620.000000	85.360	179.8593
9750.000000	85.343	176.5585
9880.000000	85.221	173.1326
10000.000000	84.999	170.0601
10150.000000	84.587	166.7197
10300.000000	84.063	163.9950
10440.000000	83.514	162.1213
10600.000000	82.868	161.4991
10750.000000	82.266	162.9079
10900.000000	81.656	165.8293
11060.000000	80.962	169.3124
11200.000000	80.289	171.8726
11380.000000	79.326	174.6219
11500.000000	78.656	176.6308
11720.000000	77.500	-179.1630
11800.000000	77.129	-177.7695
12060.000000	76.203	-174.2852
12200.000000	75.925	-172.5250
12410.000000	75.839	-169.2460
12500.000000	75.922	-167.6671
12650.000000	76.206	-165.2300
12800.000000	76.641	-163.7829
13150.000000	77.874	-168.2673
13200.000000	78.037	-169.8562
13400.000000	78.542	-178.3162
13600.000000	78.638	170.5266
13800.000000	78.157	158.7233
14000.000000	77.073	148.6556
14300.000000	74.589	138.7087
14500.000000	72.643	135.2004
14750.000000	70.160	133.9065
15000.000000	67.800	136.2112
15250.000000	65.679	142.0486
15500.000000	63.845	150.8263
15750.000000	62.243	161.4678
16000.000000	60.734	173.6897
16250.000000	59.279	-171.9409
16500.000000	57.980	-154.9752
16750.000000	57.152	-132.8430
17000.000000	57.491	-104.2039
17250.000000	59.244	-81.2964
17500.000000	61.671	-73.5470
17750.000000	64.026	-76.0941
18000.000000	65.994	-83.2014
18250.000000	67.486	-91.8981
18500.000000	68.475	-101.1910
18750.000000	68.987	-110.7957
19000.000000	69.092	-120.3094
19250.000000	68.866	-128.9705
19500.000000	68.422	-136.0371
19750.000000	67.936	-141.1825
20000.000000	67.631	-144.0097
