* Measurement data measured by REW V5.30 beta 4
* Source: Microphone (4- USB Audio Device), MICROPHONE (Master Volume), R, volume: 0.250
* Format: 256k Log Swept Sine, 1 sweep at -12.0 dBFS with no timing reference
* Dated: 10-Dec-2023 12:14:44
* REW Settings:
*  C-weighting compensation: Off
*  Target level: 75.0 dB
* Note: 
* Measurement: IKKO OH300 L
* Smoothing: 1/12 octave
* Frequency Step: 1/48 octave
* Start Frequency: 20.300 Hz
*
* Freq(Hz)	SPL(dB)	Phase(degrees)
20.299999	74.898	-69.9541
20.600000	75.015	-70.6570
20.900000	75.160	-71.4820
21.200001	75.308	-72.2995
21.400000	75.403	-72.8224
21.799999	75.581	-73.8250
22.000000	75.663	-74.3173
22.400000	75.817	-75.3171
22.700001	75.925	-76.1013
23.000000	76.030	-76.9267
23.299999	76.135	-77.7943
23.600000	76.242	-78.6967
24.000000	76.390	-79.9281
24.299999	76.507	-80.8490
24.700001	76.667	-82.0401
25.000000	76.788	-82.8905
25.400000	76.946	-83.9590
25.799999	77.097	-84.9610
26.200001	77.236	-85.9169
26.500000	77.333	-86.6181
26.900000	77.453	-87.5483
27.200001	77.537	-88.2494
27.600000	77.644	-89.1922
28.000000	77.748	-90.1407
28.500000	77.875	-91.3203
29.000000	77.998	-92.4757
29.500000	78.117	-93.5988
30.000000	78.228	-94.6981
30.400000	78.312	-95.5727
30.700001	78.372	-96.2317
31.100000	78.448	-97.1179
31.500000	78.520	-98.0110
32.000000	78.608	-99.1272
32.500000	78.693	-100.2269
33.000000	78.778	-101.2939
33.500000	78.860	-102.3182
34.000000	78.941	-103.2974
34.500000	79.018	-104.2360
35.000000	79.092	-105.1431
35.500000	79.163	-106.0277
36.000000	79.231	-106.8959
36.500000	79.298	-107.7501
37.000000	79.362	-108.5905
37.500000	79.425	-109.4158
38.200001	79.510	-110.5418
38.700001	79.567	-111.3241
39.500000	79.654	-112.5440
40.000000	79.706	-113.2920
40.599998	79.767	-114.1779
41.200001	79.827	-115.0498
41.799999	79.885	-115.9052
42.500000	79.948	-116.8799
43.099998	79.998	-117.6970
43.700001	80.046	-118.5028
44.400002	80.099	-119.4354
45.000000	80.142	-120.2252
45.500000	80.176	-120.8702
46.200001	80.222	-121.7478
46.799999	80.259	-122.4815
47.500000	80.296	-123.3253
48.200001	80.328	-124.1608
48.700001	80.349	-124.7544
49.400002	80.379	-125.5851
50.000000	80.405	-126.2966
50.799999	80.437	-127.2323
51.500000	80.462	-128.0247
52.200001	80.483	-128.7876
53.000000	80.502	-129.6321
53.799999	80.518	-130.4641
54.500000	80.532	-131.1896
55.200001	80.544	-131.9098
56.000000	80.557	-132.7167
57.000000	80.570	-133.6930
58.000000	80.580	-134.6379
59.000000	80.588	-135.5588
60.000000	80.595	-136.4572
60.799999	80.598	-137.1604
61.500000	80.600	-137.7657
62.200001	80.600	-138.3616
63.000000	80.599	-139.0293
64.000000	80.596	-139.8412
65.000000	80.591	-140.6297
66.000000	80.584	-141.3994
67.000000	80.576	-142.1487
68.000000	80.566	-142.8765
69.000000	80.554	-143.5868
70.000000	80.541	-144.2811
71.000000	80.525	-144.9562
72.000000	80.507	-145.6105
73.000000	80.487	-146.2465
74.000000	80.467	-146.8664
75.000000	80.446	-147.4691
76.199997	80.420	-148.1720
77.500000	80.390	-148.9128
78.800003	80.359	-149.6242
80.000000	80.331	-150.2479
81.199997	80.302	-150.8466
82.500000	80.270	-151.4749
83.800003	80.237	-152.0798
85.000000	80.208	-152.6190
86.199997	80.177	-153.1424
87.500000	80.143	-153.6935
88.500000	80.117	-154.1060
90.000000	80.077	-154.7072
91.199997	80.044	-155.1758
92.500000	80.007	-155.6716
93.800003	79.969	-156.1545
95.000000	79.934	-156.5912
96.199997	79.900	-157.0202
97.500000	79.862	-157.4752
98.800003	79.824	-157.9160
100.000000	79.788	-158.3049
101.500000	79.745	-158.7674
103.000000	79.703	-159.2133
104.400002	79.666	-159.6238
106.000000	79.625	-160.0960
107.500000	79.589	-160.5462
109.000000	79.552	-161.0013
110.599998	79.511	-161.4851
112.000000	79.474	-161.9007
113.800003	79.424	-162.4189
115.000000	79.390	-162.7535
117.199997	79.327	-163.3469
118.000000	79.303	-163.5574
120.599998	79.226	-164.2232
122.000000	79.183	-164.5743
124.099998	79.116	-165.1001
125.000000	79.088	-165.3252
126.500000	79.040	-165.6975
128.000000	78.992	-166.0653
131.500000	78.878	-166.9168
132.000000	78.861	-167.0387
134.000000	78.795	-167.5238
136.000000	78.728	-167.9991
138.000000	78.660	-168.4686
140.000000	78.592	-168.9347
143.000000	78.491	-169.6128
145.000000	78.423	-170.0493
147.500000	78.337	-170.5802
150.000000	78.250	-171.0849
152.500000	78.162	-171.5535
155.000000	78.075	-171.9879
157.500000	77.989	-172.4030
160.000000	77.905	-172.8045
162.500000	77.823	-173.1981
165.000000	77.740	-173.5875
167.500000	77.655	-173.9707
170.000000	77.567	-174.3463
172.500000	77.475	-174.7111
175.000000	77.380	-175.0636
177.500000	77.283	-175.4080
180.000000	77.186	-175.7467
182.500000	77.089	-176.0767
185.000000	76.992	-176.3893
187.500000	76.896	-176.6774
190.000000	76.801	-176.9449
192.500000	76.710	-177.1977
195.000000	76.622	-177.4377
197.500000	76.537	-177.6646
200.000000	76.453	-177.8737
203.000000	76.353	-178.0938
206.000000	76.254	-178.2838
209.000000	76.159	-178.4504
212.000000	76.065	-178.5935
214.000000	76.002	-178.6736
218.000000	75.878	-178.7892
220.000000	75.819	-178.8223
224.000000	75.708	-178.8459
227.000000	75.636	-178.8450
230.000000	75.574	-178.8548
233.000000	75.521	-178.9059
236.000000	75.474	-179.0185
240.000000	75.405	-179.2578
243.000000	75.345	-179.4811
247.000000	75.251	-179.7904
250.000000	75.174	179.9910
254.000000	75.068	179.7269
258.000000	74.963	179.4994
262.000000	74.858	179.3102
265.000000	74.781	179.1870
269.000000	74.679	179.0482
272.000000	74.605	178.9692
276.000000	74.508	178.8987
280.000000	74.415	178.8559
285.000000	74.304	178.8127
290.000000	74.199	178.7609
295.000000	74.093	178.6902
300.000000	73.984	178.5937
304.000000	73.893	178.4935
307.000000	73.822	178.4092
311.000000	73.728	178.2980
315.000000	73.635	178.2006
320.000000	73.524	178.1034
325.000000	73.418	178.0311
330.000000	73.312	177.9737
335.000000	73.205	177.9247
340.000000	73.097	177.8852
345.000000	72.991	177.8407
350.000000	72.887	177.7793
355.000000	72.786	177.7141
360.000000	72.688	177.6632
365.000000	72.590	177.6315
370.000000	72.493	177.6187
375.000000	72.398	177.6304
382.000000	72.273	177.6935
387.000000	72.188	177.7706
395.000000	72.056	177.9452
400.000000	71.973	178.0783
406.000000	71.875	178.2480
412.000000	71.782	178.4154
418.000000	71.696	178.5677
425.000000	71.603	178.7255
431.000000	71.528	178.8466
437.000000	71.453	178.9492
444.000000	71.364	179.0377
450.000000	71.287	179.1009
455.000000	71.222	179.1588
462.000000	71.132	179.2442
468.000000	71.053	179.3098
475.000000	70.961	179.3870
482.000000	70.869	179.4877
487.000000	70.805	179.5780
494.000000	70.719	179.7267
500.000000	70.649	179.8687
508.000000	70.560	-179.9298
515.000000	70.484	-179.7543
522.000000	70.409	-179.6031
530.000000	70.325	-179.4669
538.000000	70.243	-179.3416
545.000000	70.174	-179.2370
552.000000	70.108	-179.1494
560.000000	70.034	-179.0692
570.000000	69.946	-178.9803
580.000000	69.860	-178.9156
590.000000	69.776	-178.8999
600.000000	69.694	-178.9156
608.000000	69.629	-178.9362
615.000000	69.573	-178.9596
622.000000	69.519	-178.9803
630.000000	69.460	-178.9896
640.000000	69.392	-178.9852
650.000000	69.330	-178.9989
660.000000	69.272	-179.0779
670.000000	69.216	-179.2553
680.000000	69.159	-179.5477
690.000000	69.102	-179.9380
700.000000	69.049	179.6171
710.000000	69.003	179.1493
720.000000	68.963	178.6779
730.000000	68.926	178.2180
740.000000	68.892	177.7851
750.000000	68.861	177.3849
762.000000	68.833	176.9593
775.000000	68.812	176.5860
788.000000	68.800	176.2855
800.000000	68.797	176.0090
812.000000	68.800	175.6524
825.000000	68.806	175.1113
838.000000	68.812	174.4009
850.000000	68.824	173.6299
862.000000	68.844	172.8023
875.000000	68.877	171.9148
885.000000	68.911	171.2665
900.000000	68.977	170.3273
912.000000	69.041	169.5602
925.000000	69.114	168.6418
938.000000	69.187	167.5583
950.000000	69.256	166.3972
962.000000	69.329	165.1078
975.000000	69.413	163.6038
988.000000	69.505	162.0293
1000.000000	69.595	160.5435
1015.000000	69.714	158.6382
1030.000000	69.838	156.6610
1044.000000	69.953	154.7602
1060.000000	70.084	152.5466
1075.000000	70.213	150.4592
1090.000000	70.347	148.3803
1106.000000	70.493	146.1638
1120.000000	70.617	144.2135
1138.000000	70.777	141.6918
1150.000000	70.883	140.0089
1172.000000	71.078	136.8888
1180.000000	71.148	135.7226
1206.000000	71.366	131.7015
1220.000000	71.474	129.3550
1241.000000	71.625	125.6048
1250.000000	71.686	123.9335
1265.000000	71.787	121.1030
1280.000000	71.889	118.2505
1315.000000	72.121	111.6255
1320.000000	72.153	110.6872
1340.000000	72.283	106.9544
1360.000000	72.413	103.2341
1380.000000	72.540	99.4562
1400.000000	72.662	95.5359
1430.000000	72.834	89.3169
1450.000000	72.947	85.0031
1475.000000	73.094	79.5560
1500.000000	73.248	74.1126
1525.000000	73.408	68.6761
1550.000000	73.578	63.2368
1575.000000	73.757	57.7691
1600.000000	73.940	52.2096
1625.000000	74.122	46.5089
1650.000000	74.308	40.6880
1675.000000	74.502	34.7637
1700.000000	74.699	28.7040
1725.000000	74.897	22.4584
1750.000000	75.098	16.0233
1775.000000	75.303	9.4133
1800.000000	75.510	2.6442
1825.000000	75.718	-4.2540
1850.000000	75.927	-11.2085
1875.000000	76.141	-18.1096
1900.000000	76.365	-24.8783
1925.000000	76.597	-31.5381
1950.000000	76.830	-38.2119
1975.000000	77.061	-45.0350
2000.000000	77.288	-52.0925
2030.000000	77.557	-60.8971
2060.000000	77.823	-70.0507
2090.000000	78.088	-79.5315
2120.000000	78.351	-89.3524
2140.000000	78.523	-96.0986
2180.000000	78.850	-110.0095
2200.000000	79.008	-117.0875
2240.000000	79.323	-131.2465
2270.000000	79.556	-141.8296
2300.000000	79.776	-152.4822
2330.000000	79.980	-163.2750
2360.000000	80.172	-174.1638
2400.000000	80.414	171.3259
2430.000000	80.585	160.4952
2470.000000	80.791	146.0573
2500.000000	80.926	135.1915
2540.000000	81.085	120.6942
2580.000000	81.220	106.2676
2620.000000	81.336	91.9451
2650.000000	81.410	81.2233
2690.000000	81.486	66.8353
2720.000000	81.529	55.9384
2760.000000	81.569	41.3409
2800.000000	81.596	26.8412
2850.000000	81.627	9.0781
2900.000000	81.650	-8.4418
2950.000000	81.656	-26.0776
3000.000000	81.642	-43.6252
3040.000000	81.635	-56.9818
3070.000000	81.643	-66.2914
3110.000000	81.668	-77.7504
3150.000000	81.696	-88.4544
3200.000000	81.721	-101.2174
3250.000000	81.737	-113.0569
3300.000000	81.774	-123.0468
3350.000000	81.857	-130.6168
3400.000000	81.965	-136.2909
3450.000000	82.079	-141.0345
3500.000000	82.202	-145.5142
3550.000000	82.329	-150.1333
3600.000000	82.456	-155.0747
3650.000000	82.584	-160.3020
3700.000000	82.711	-165.6892
3750.000000	82.831	-171.1846
3820.000000	82.967	-179.0953
3870.000000	83.034	175.1479
3950.000000	83.086	165.9512
4000.000000	83.077	160.1549
4060.000000	83.007	152.9268
4120.000000	82.866	145.4036
4180.000000	82.657	137.8822
4250.000000	82.335	129.5803
4310.000000	81.997	123.0787
4370.000000	81.607	117.1147
4440.000000	81.094	110.6936
4500.000000	80.619	105.5723
4550.000000	80.207	101.5107
4620.000000	79.610	96.0073
4680.000000	79.090	91.4521
4750.000000	78.488	86.4667
4820.000000	77.899	81.8588
4870.000000	77.487	78.7548
4940.000000	76.925	74.7432
5000.000000	76.463	71.7847
5080.000000	75.882	68.7410
5150.000000	75.408	66.9185
5220.000000	74.965	65.6897
5300.000000	74.492	64.6570
5380.000000	74.052	63.7686
5450.000000	73.697	63.1125
5520.000000	73.370	62.6235
5600.000000	73.033	62.3416
5700.000000	72.671	62.4238
5800.000000	72.368	62.7523
5900.000000	72.121	63.1405
6000.000000	71.932	63.9570
6080.000000	71.829	65.3423
6150.000000	71.776	67.2329
6220.000000	71.758	69.6959
6300.000000	71.776	73.0181
6400.000000	71.857	77.6335
6500.000000	72.003	82.4966
6600.000000	72.217	87.3799
6700.000000	72.501	92.1030
6800.000000	72.869	96.7393
6900.000000	73.331	101.4482
7000.000000	73.892	106.2621
7100.000000	74.554	111.2245
7200.000000	75.317	116.4592
7300.000000	76.181	122.1006
7400.000000	77.137	128.0933
7500.000000	78.152	133.8420
7620.000000	79.368	139.3633
7750.000000	80.562	143.3823
7880.000000	81.475	145.8727
8000.000000	81.937	147.3257
8120.000000	81.979	148.7798
8250.000000	81.590	151.2837
8380.000000	80.871	155.2019
8500.000000	80.067	160.3027
8620.000000	79.265	166.8105
8750.000000	78.505	174.8956
8850.000000	78.039	-178.6108
9000.000000	77.569	-169.0513
9120.000000	77.388	-161.9966
9250.000000	77.359	-155.3402
9380.000000	77.455	-149.8914
9500.000000	77.606	-145.6787
9620.000000	77.779	-141.7759
9750.000000	77.931	-137.7772
9880.000000	77.967	-134.3770
10000.000000	77.820	-132.0643
10150.000000	77.310	-130.1367
10300.000000	76.422	-128.3796
10440.000000	75.315	-125.8032
10600.000000	73.854	-120.6452
10750.000000	72.443	-112.8091
10900.000000	71.121	-101.8212
11060.000000	69.897	-87.6146
11200.000000	69.010	-74.1019
11380.000000	68.114	-55.5682
11500.000000	67.650	-42.1920
11720.000000	67.020	-15.1085
11800.000000	66.851	-4.4395
12060.000000	66.520	33.1128
12200.000000	66.493	54.6893
12410.000000	66.699	88.0218
12500.000000	66.899	102.5807
12650.000000	67.409	126.8896
12800.000000	68.156	150.2957
13150.000000	70.656	-167.0879
13200.000000	71.048	-162.8385
13400.000000	72.494	-150.1868
13600.000000	73.434	-142.9552
13800.000000	73.553	-138.3019
14000.000000	72.777	-132.5641
14300.000000	70.393	-114.8230
14500.000000	68.460	-93.9667
14750.000000	66.183	-56.7626
15000.000000	64.425	-10.4250
15250.000000	63.325	36.1532
15500.000000	62.771	77.4738
15750.000000	62.452	113.1196
16000.000000	61.983	142.3874
16250.000000	61.057	166.3770
16500.000000	59.570	-170.7491
16750.000000	57.648	-144.5397
17000.000000	55.622	-111.4995
17250.000000	54.119	-59.4126
17500.000000	53.812	21.1465
17750.000000	54.507	69.5048
18000.000000	55.455	100.3502
18250.000000	56.254	128.0648
18500.000000	56.828	156.4075
18750.000000	57.208	-173.6860
19000.000000	57.411	-143.4781
19250.000000	57.415	-115.0408
19500.000000	57.215	-89.5307
19750.000000	56.898	-68.5713
20000.000000	56.661	-56.3348
