* Measurement data measured by REW V5.20.13
* Source: Microphone (2- USB Audio Device), MICROPHONE (Master Volume), L, volume: 0.250. Timing signal peak level -37.5 dBFS, measurement signal peak level -37.4 dBFS
* Format: 256k Log Swept Sine, 1 sweep at -12.0 dBFS using an acoustic timing reference
* Dated: 11-May-2023 13:35:44
* REW Settings:
*  C-weighting compensation: Off
*  Target level: 75.0 dB
* Note: 
* Measurement: KB Ear KS1 R
* Smoothing: 1/12 octave
* Frequency Step: 1/48 octave
* Start Frequency: 20.000 Hz
*
* Freq(Hz)	SPL(dB)	Phase(degrees)
20.000000	65.677	-57.5967
20.299999	66.186	-60.8333
20.600000	66.707	-63.2821
20.900000	67.216	-64.9775
21.200001	67.702	-66.0012
21.400000	68.010	-66.3907
21.799999	68.583	-66.6650
22.000000	68.841	-66.6574
22.400000	69.287	-66.5424
22.700001	69.549	-66.4337
23.000000	69.745	-66.3053
23.299999	69.884	-66.1368
23.600000	69.978	-65.9479
24.000000	70.054	-65.7664
24.299999	70.085	-65.8100
24.700001	70.095	-66.2573
25.000000	70.077	-66.9301
25.400000	70.020	-68.2433
25.799999	69.941	-69.9135
26.200001	69.867	-71.8104
26.500000	69.836	-73.3251
26.900000	69.846	-75.4265
27.200001	69.900	-77.0459
27.600000	70.036	-79.2405
28.000000	70.229	-81.4329
28.500000	70.514	-84.0472
29.000000	70.808	-86.3176
29.500000	71.093	-88.0839
30.000000	71.365	-89.3428
30.400000	71.568	-90.0867
30.700001	71.708	-90.5544
31.100000	71.870	-91.1204
31.500000	72.001	-91.6561
32.000000	72.120	-92.3168
32.500000	72.200	-93.0138
33.000000	72.253	-93.8197
33.500000	72.291	-94.7974
34.000000	72.321	-95.9751
34.500000	72.351	-97.3332
35.000000	72.388	-98.8204
35.500000	72.440	-100.3707
36.000000	72.509	-101.9257
36.500000	72.595	-103.4337
37.000000	72.694	-104.8420
37.500000	72.802	-106.1124
38.200001	72.958	-107.6535
38.700001	73.067	-108.6232
39.500000	73.223	-110.0493
40.000000	73.302	-110.9072
40.599998	73.377	-111.9409
41.200001	73.430	-112.9937
41.799999	73.465	-114.0493
42.500000	73.498	-115.2644
43.099998	73.530	-116.3095
43.700001	73.569	-117.3839
44.400002	73.623	-118.6683
45.000000	73.673	-119.7628
45.500000	73.717	-120.6490
46.200001	73.782	-121.8423
46.799999	73.840	-122.8300
47.500000	73.910	-123.9588
48.200001	73.979	-125.0720
48.700001	74.027	-125.8576
49.400002	74.089	-126.9421
50.000000	74.133	-127.8555
50.799999	74.176	-129.0360
51.500000	74.204	-130.0137
52.200001	74.232	-130.9461
53.000000	74.264	-131.9998
53.799999	74.291	-133.0591
54.500000	74.308	-133.9648
55.200001	74.321	-134.8383
56.000000	74.339	-135.8168
57.000000	74.370	-137.0467
58.000000	74.409	-138.3036
59.000000	74.450	-139.5623
60.000000	74.485	-140.7452
60.799999	74.509	-141.6137
61.500000	74.526	-142.3298
62.200001	74.539	-143.0214
63.000000	74.549	-143.8052
64.000000	74.554	-144.8070
65.000000	74.555	-145.8282
66.000000	74.561	-146.8548
67.000000	74.576	-147.8934
68.000000	74.593	-148.9208
69.000000	74.608	-149.8879
70.000000	74.618	-150.7751
71.000000	74.625	-151.6075
72.000000	74.627	-152.4186
73.000000	74.625	-153.2280
74.000000	74.621	-154.0505
75.000000	74.617	-154.8861
76.199997	74.615	-155.8926
77.500000	74.615	-156.9752
78.800003	74.613	-158.0240
80.000000	74.607	-158.9297
81.199997	74.599	-159.7639
82.500000	74.593	-160.6251
83.800003	74.587	-161.4863
85.000000	74.575	-162.2736
86.199997	74.558	-163.0330
87.500000	74.538	-163.8277
88.500000	74.523	-164.4317
90.000000	74.501	-165.3365
91.199997	74.482	-166.0500
92.500000	74.459	-166.7948
93.800003	74.432	-167.5062
95.000000	74.407	-168.1531
96.199997	74.383	-168.8046
97.500000	74.357	-169.5142
98.800003	74.335	-170.2313
100.000000	74.315	-170.8902
101.500000	74.288	-171.6755
103.000000	74.258	-172.4099
104.400002	74.227	-173.0654
106.000000	74.191	-173.7922
107.500000	74.160	-174.4639
109.000000	74.130	-175.1187
110.599998	74.103	-175.7851
112.000000	74.081	-176.3616
113.800003	74.052	-177.1328
115.000000	74.028	-177.6547
117.199997	73.972	-178.5663
118.000000	73.950	-178.8728
120.599998	73.880	-179.7630
122.000000	73.849	179.7888
124.099998	73.810	179.0628
125.000000	73.792	178.7263
126.500000	73.758	178.1602
128.000000	73.719	177.6226
131.500000	73.622	176.4868
132.000000	73.608	176.3282
134.000000	73.550	175.6818
136.000000	73.496	175.0204
138.000000	73.445	174.3878
140.000000	73.399	173.8369
143.000000	73.337	173.1259
145.000000	73.291	172.6671
147.500000	73.222	172.0728
150.000000	73.140	171.4437
152.500000	73.057	170.8163
155.000000	72.986	170.2330
157.500000	72.927	169.7130
160.000000	72.874	169.2232
162.500000	72.817	168.7313
165.000000	72.755	168.2499
167.500000	72.692	167.7864
170.000000	72.628	167.3350
172.500000	72.564	166.9001
175.000000	72.503	166.4916
177.500000	72.442	166.1075
180.000000	72.379	165.7272
182.500000	72.304	165.3340
185.000000	72.214	164.9484
187.500000	72.112	164.5935
190.000000	72.008	164.2625
192.500000	71.913	163.9425
195.000000	71.832	163.6265
197.500000	71.766	163.3107
200.000000	71.712	162.9895
203.000000	71.660	162.5973
206.000000	71.619	162.2406
209.000000	71.585	161.9432
212.000000	71.547	161.6754
214.000000	71.514	161.4949
218.000000	71.433	161.1298
220.000000	71.388	160.9644
224.000000	71.294	160.6645
227.000000	71.224	160.4273
230.000000	71.154	160.1963
233.000000	71.084	160.0231
236.000000	71.011	159.9023
240.000000	70.910	159.7048
243.000000	70.831	159.4802
247.000000	70.725	159.1333
250.000000	70.646	158.8867
254.000000	70.548	158.6283
258.000000	70.457	158.4720
262.000000	70.371	158.3495
265.000000	70.311	158.2501
269.000000	70.234	158.1308
272.000000	70.173	158.0519
276.000000	70.084	157.9431
280.000000	69.990	157.8193
285.000000	69.876	157.6364
290.000000	69.772	157.4269
295.000000	69.673	157.2775
300.000000	69.580	157.2477
304.000000	69.502	157.2463
307.000000	69.437	157.2292
311.000000	69.350	157.1880
315.000000	69.272	157.1552
320.000000	69.183	157.1725
325.000000	69.094	157.2352
330.000000	69.001	157.2941
335.000000	68.911	157.3408
340.000000	68.828	157.4126
345.000000	68.743	157.5187
350.000000	68.649	157.6214
355.000000	68.555	157.7063
360.000000	68.467	157.7769
365.000000	68.384	157.8560
370.000000	68.304	157.9587
375.000000	68.228	158.0649
382.000000	68.130	158.2002
387.000000	68.064	158.3392
395.000000	67.951	158.6593
400.000000	67.867	158.8843
406.000000	67.756	159.1421
412.000000	67.646	159.3714
418.000000	67.553	159.6199
425.000000	67.463	159.9775
431.000000	67.394	160.2838
437.000000	67.326	160.5424
444.000000	67.247	160.7974
450.000000	67.177	160.9927
455.000000	67.114	161.1675
462.000000	67.019	161.4722
468.000000	66.932	161.7643
475.000000	66.834	162.0804
482.000000	66.746	162.4186
487.000000	66.683	162.7025
494.000000	66.597	163.1299
500.000000	66.528	163.4937
508.000000	66.441	163.9680
515.000000	66.370	164.3796
522.000000	66.304	164.8096
530.000000	66.231	165.3032
538.000000	66.154	165.7668
545.000000	66.081	166.1886
552.000000	66.009	166.6331
560.000000	65.935	167.1063
570.000000	65.851	167.6605
580.000000	65.770	168.3359
590.000000	65.692	169.1107
600.000000	65.622	169.9242
608.000000	65.571	170.5999
615.000000	65.525	171.1788
622.000000	65.480	171.7216
630.000000	65.431	172.3063
640.000000	65.378	173.0559
650.000000	65.330	173.8455
660.000000	65.277	174.6403
670.000000	65.215	175.4111
680.000000	65.145	176.1414
690.000000	65.087	176.8932
700.000000	65.050	177.7339
710.000000	65.021	178.6446
720.000000	64.995	179.5341
730.000000	64.979	-179.6282
740.000000	64.971	-178.7982
750.000000	64.955	-177.9557
762.000000	64.921	-176.9672
775.000000	64.876	-175.9495
788.000000	64.836	-174.9368
800.000000	64.818	-173.9349
812.000000	64.824	-172.8607
825.000000	64.847	-171.6964
838.000000	64.873	-170.5801
850.000000	64.886	-169.5602
862.000000	64.897	-168.5475
875.000000	64.922	-167.4715
885.000000	64.951	-166.6400
900.000000	65.005	-165.4066
912.000000	65.048	-164.4692
925.000000	65.090	-163.4949
938.000000	65.136	-162.5522
950.000000	65.192	-161.7162
962.000000	65.259	-160.8979
975.000000	65.334	-159.9985
988.000000	65.409	-159.0706
1000.000000	65.474	-158.2361
1015.000000	65.552	-157.3474
1030.000000	65.636	-156.6139
1044.000000	65.726	-155.9489
1060.000000	65.835	-155.1925
1075.000000	65.939	-154.5172
1090.000000	66.040	-153.8395
1106.000000	66.142	-153.1195
1120.000000	66.226	-152.5605
1138.000000	66.329	-151.9483
1150.000000	66.400	-151.5588
1172.000000	66.540	-150.8687
1180.000000	66.595	-150.6400
1206.000000	66.799	-149.9935
1220.000000	66.915	-149.6511
1241.000000	67.086	-149.1050
1250.000000	67.162	-148.8752
1265.000000	67.294	-148.5055
1280.000000	67.430	-148.1293
1315.000000	67.720	-147.1792
1320.000000	67.754	-147.0397
1340.000000	67.865	-146.5131
1360.000000	67.938	-146.0728
1380.000000	67.981	-145.6586
1400.000000	68.010	-145.2145
1430.000000	68.068	-144.5554
1450.000000	68.131	-144.1223
1475.000000	68.242	-143.5911
1500.000000	68.373	-143.1100
1525.000000	68.514	-142.6775
1550.000000	68.676	-142.2847
1575.000000	68.853	-141.8959
1600.000000	69.033	-141.4716
1625.000000	69.208	-141.0502
1650.000000	69.373	-140.6689
1675.000000	69.531	-140.3141
1700.000000	69.692	-139.9747
1725.000000	69.858	-139.6652
1750.000000	70.027	-139.4006
1775.000000	70.197	-139.1800
1800.000000	70.368	-138.9639
1825.000000	70.540	-138.7479
1850.000000	70.712	-138.5677
1875.000000	70.888	-138.4409
1900.000000	71.067	-138.3792
1925.000000	71.248	-138.3783
1950.000000	71.428	-138.4211
1975.000000	71.609	-138.4900
2000.000000	71.791	-138.5917
2030.000000	72.011	-138.8115
2060.000000	72.229	-139.1604
2090.000000	72.440	-139.5940
2120.000000	72.646	-140.0736
2140.000000	72.782	-140.4178
2180.000000	73.049	-141.2066
2200.000000	73.180	-141.6663
2240.000000	73.436	-142.6951
2270.000000	73.615	-143.5544
2300.000000	73.776	-144.5059
2330.000000	73.922	-145.5446
2360.000000	74.057	-146.6442
2400.000000	74.223	-148.1745
2430.000000	74.333	-149.3512
2470.000000	74.454	-150.9410
2500.000000	74.525	-152.1575
2540.000000	74.595	-153.8054
2580.000000	74.638	-155.4338
2620.000000	74.658	-156.9933
2650.000000	74.657	-158.1136
2690.000000	74.634	-159.5484
2720.000000	74.603	-160.5707
2760.000000	74.544	-161.8352
2800.000000	74.471	-162.9923
2850.000000	74.368	-164.3103
2900.000000	74.257	-165.4548
2950.000000	74.132	-166.3859
3000.000000	73.991	-167.1578
3040.000000	73.872	-167.6542
3070.000000	73.783	-167.9332
3110.000000	73.669	-168.1984
3150.000000	73.559	-168.3824
3200.000000	73.427	-168.5168
3250.000000	73.300	-168.5349
3300.000000	73.180	-168.4279
3350.000000	73.066	-168.2117
3400.000000	72.957	-167.9178
3450.000000	72.851	-167.5726
3500.000000	72.753	-167.1946
3550.000000	72.668	-166.7751
3600.000000	72.597	-166.2897
3650.000000	72.541	-165.7319
3700.000000	72.502	-165.1069
3750.000000	72.481	-164.4410
3820.000000	72.487	-163.5110
3870.000000	72.514	-162.8483
3950.000000	72.588	-161.7763
4000.000000	72.646	-161.0983
4060.000000	72.720	-160.2767
4120.000000	72.795	-159.4445
4180.000000	72.874	-158.6302
4250.000000	72.983	-157.7788
4310.000000	73.096	-157.1431
4370.000000	73.231	-156.5759
4440.000000	73.420	-156.0239
4500.000000	73.614	-155.6929
4550.000000	73.803	-155.5404
4620.000000	74.106	-155.5519
4680.000000	74.395	-155.8029
4750.000000	74.752	-156.4020
4820.000000	75.122	-157.3701
4870.000000	75.390	-158.3344
4940.000000	75.759	-160.1339
5000.000000	76.055	-162.1337
5080.000000	76.394	-165.4863
5150.000000	76.613	-169.0372
5220.000000	76.742	-173.0750
5300.000000	76.756	-178.1123
5380.000000	76.604	176.6746
5450.000000	76.323	172.2842
5520.000000	75.919	168.3965
5600.000000	75.357	164.9003
5700.000000	74.629	161.8266
5800.000000	73.957	159.1472
5900.000000	73.239	156.6044
6000.000000	72.427	154.9197
6080.000000	71.749	154.3741
6150.000000	71.161	154.4238
6220.000000	70.591	154.8992
6300.000000	69.969	155.8810
6400.000000	69.237	157.5764
6500.000000	68.556	159.6003
6600.000000	67.933	161.8979
6700.000000	67.375	164.5062
6800.000000	66.890	167.4162
6900.000000	66.472	170.5024
7000.000000	66.107	173.6943
7100.000000	65.800	176.9808
7200.000000	65.569	-179.6849
7300.000000	65.417	-176.3302
7400.000000	65.342	-172.9127
7500.000000	65.343	-169.3951
7620.000000	65.426	-165.1220
7750.000000	65.578	-160.5795
7880.000000	65.743	-156.1137
8000.000000	65.893	-152.0095
8120.000000	66.052	-147.9546
8250.000000	66.282	-143.7122
8380.000000	66.635	-139.7191
8500.000000	67.099	-136.2964
8620.000000	67.712	-133.1761
8750.000000	68.555	-130.2747
8850.000000	69.322	-128.5165
9000.000000	70.640	-127.0635
9120.000000	71.804	-127.4332
9250.000000	73.090	-129.9982
9380.000000	74.271	-135.4066
9500.000000	75.128	-143.1327
9620.000000	75.641	-153.0244
9750.000000	75.730	-164.8224
9880.000000	75.334	-175.8920
10000.000000	74.613	175.8372
10150.000000	73.401	168.8478
10300.000000	72.050	165.3007
10440.000000	70.821	164.3825
10600.000000	69.573	165.2864
10750.000000	68.618	167.3523
10900.000000	67.901	170.1072
11060.000000	67.413	173.4256
11200.000000	67.223	176.4005
11380.000000	67.311	179.9498
11500.000000	67.579	-178.1121
11720.000000	68.485	-176.3663
11800.000000	68.922	-176.6583
12060.000000	70.426	176.8678
12200.000000	71.045	169.0947
12410.000000	71.314	152.7291
12500.000000	71.119	145.0275
12650.000000	70.361	133.1439
12800.000000	69.123	124.0095
13150.000000	65.076	115.7303
13200.000000	64.434	115.7626
13400.000000	61.859	117.8057
13600.000000	59.405	121.9557
13800.000000	57.235	127.3617
14000.000000	55.464	133.4423
14300.000000	53.513	142.8989
14500.000000	52.540	147.5547
14750.000000	51.634	143.7601
15000.000000	50.948	105.0801
15250.000000	50.335	-13.8948
15500.000000	49.846	134.6014
15750.000000	49.566	-98.0740
16000.000000	49.554	34.3643
16250.000000	49.911	131.8032
16500.000000	50.729	-143.1666
16750.000000	52.006	7.8871
17000.000000	53.613	-122.0793
17250.000000	55.277	127.1760
17500.000000	56.606	-5.6926
17750.000000	57.211	-170.2050
18000.000000	56.912	-75.5200
18250.000000	55.863	79.6829
18500.000000	54.465	-31.0747
18750.000000	53.156	-95.2046
19000.000000	52.190	-89.9082
19250.000000	51.570	43.3164
19500.000000	51.147	-165.2949
19750.000000	50.777	44.2422
