* Measurement data measured by REW V5.31.3
* Source: Microphone (USB Sound Device        ), MICROPHONE (Master Volume), L, volume: 0.700
* Format: 256k Log Swept Sine, 1 sweep at -12.0 dBFS with no timing reference
* Dated: 29-Jan-2025 17:42:49
* REW Settings:
*  C-weighting compensation: Off
*  Target level: 75.0 dB
* Note: 
* Measurement: Delci AE Gold R
* Smoothing: 1/12 octave
* Frequency Step: 1/48 octave
* Start Frequency: 20.300 Hz
*
* Freq(Hz)	SPL(dB)	Phase(degrees)
20.299999	73.671	-161.6290
20.600000	73.663	-162.0812
20.900000	73.652	-162.6472
21.200001	73.639	-163.2510
21.400000	73.630	-163.6592
21.799999	73.612	-164.4745
22.000000	73.604	-164.8782
22.400000	73.589	-165.6717
22.700001	73.578	-166.2514
23.000000	73.568	-166.8162
23.299999	73.559	-167.3661
23.600000	73.549	-167.9020
24.000000	73.534	-168.5977
24.299999	73.521	-169.1074
24.700001	73.502	-169.7730
25.000000	73.487	-170.2625
25.400000	73.467	-170.9030
25.799999	73.447	-171.5294
26.200001	73.426	-172.1420
26.500000	73.410	-172.5925
26.900000	73.387	-173.1821
27.200001	73.370	-173.6167
27.600000	73.347	-174.1866
28.000000	73.323	-174.7458
28.500000	73.294	-175.4292
29.000000	73.264	-176.0943
29.500000	73.234	-176.7413
30.000000	73.205	-177.3722
30.400000	73.181	-177.8667
30.700001	73.162	-178.2321
31.100000	73.137	-178.7122
31.500000	73.111	-179.1844
32.000000	73.080	-179.7634
32.500000	73.050	179.6707
33.000000	73.020	179.1178
33.500000	72.989	178.5777
34.000000	72.959	178.0497
34.500000	72.928	177.5328
35.000000	72.896	177.0263
35.500000	72.863	176.5298
36.000000	72.830	176.0428
36.500000	72.798	175.5650
37.000000	72.767	175.0966
37.500000	72.735	174.6383
38.200001	72.687	174.0147
38.700001	72.652	173.5816
39.500000	72.596	172.9053
40.000000	72.561	172.4911
40.599998	72.520	172.0026
41.200001	72.481	171.5245
41.799999	72.443	171.0577
42.500000	72.400	170.5267
43.099998	72.363	170.0814
43.700001	72.324	169.6451
44.400002	72.278	169.1498
45.000000	72.237	168.7384
45.500000	72.203	168.4033
46.200001	72.155	167.9412
46.799999	72.114	167.5503
47.500000	72.070	167.1030
48.200001	72.031	166.6684
48.700001	72.007	166.3655
49.400002	71.972	165.9506
50.000000	71.938	165.6030
50.799999	71.882	165.1505
51.500000	71.826	164.7632
52.200001	71.771	164.3835
53.000000	71.711	163.9608
53.799999	71.654	163.5507
54.500000	71.607	163.2005
55.200001	71.561	162.8573
56.000000	71.508	162.4736
57.000000	71.443	162.0080
58.000000	71.377	161.5572
59.000000	71.312	161.1198
60.000000	71.247	160.6976
60.799999	71.195	160.3704
61.500000	71.151	160.0903
62.200001	71.107	159.8157
63.000000	71.058	159.5086
64.000000	70.997	159.1351
65.000000	70.936	158.7741
66.000000	70.875	158.4253
67.000000	70.814	158.0873
68.000000	70.752	157.7600
69.000000	70.689	157.4442
70.000000	70.624	157.1397
71.000000	70.561	156.8447
72.000000	70.500	156.5572
73.000000	70.442	156.2775
74.000000	70.384	156.0073
75.000000	70.326	155.7475
76.199997	70.255	155.4500
77.500000	70.178	155.1455
78.800003	70.103	154.8573
80.000000	70.035	154.6009
81.199997	69.968	154.3499
82.500000	69.896	154.0846
83.800003	69.825	153.8284
85.000000	69.760	153.6004
86.199997	69.694	153.3825
87.500000	69.621	153.1603
88.500000	69.565	152.9990
90.000000	69.482	152.7702
91.199997	69.418	152.5947
92.500000	69.350	152.4074
93.800003	69.284	152.2207
95.000000	69.222	152.0515
96.199997	69.159	151.8900
97.500000	69.089	151.7274
98.800003	69.019	151.5787
100.000000	68.956	151.4520
101.500000	68.881	151.3036
103.000000	68.812	151.1624
104.400002	68.748	151.0335
106.000000	68.675	150.8884
107.500000	68.605	150.7567
109.000000	68.534	150.6317
110.599998	68.458	150.5060
112.000000	68.391	150.4025
113.800003	68.306	150.2796
115.000000	68.250	150.2050
117.199997	68.148	150.0832
118.000000	68.111	150.0433
120.599998	67.993	149.9281
122.000000	67.931	149.8752
124.099998	67.839	149.8084
125.000000	67.799	149.7839
126.500000	67.734	149.7470
128.000000	67.669	149.7142
131.500000	67.519	149.6590
132.000000	67.498	149.6543
134.000000	67.414	149.6450
136.000000	67.330	149.6506
138.000000	67.246	149.6687
140.000000	67.164	149.6969
143.000000	67.044	149.7559
145.000000	66.967	149.8045
147.500000	66.874	149.8722
150.000000	66.784	149.9395
152.500000	66.698	149.9989
155.000000	66.612	150.0533
157.500000	66.524	150.1107
160.000000	66.435	150.1752
162.500000	66.347	150.2513
165.000000	66.262	150.3415
167.500000	66.177	150.4457
170.000000	66.092	150.5634
172.500000	66.006	150.6942
175.000000	65.919	150.8395
177.500000	65.829	151.0008
180.000000	65.732	151.1799
182.500000	65.626	151.3800
185.000000	65.508	151.6052
187.500000	65.380	151.8587
190.000000	65.246	152.1447
192.500000	65.115	152.4696
195.000000	64.996	152.8414
197.500000	64.890	153.2700
200.000000	64.800	153.7632
203.000000	64.716	154.4454
206.000000	64.658	155.2197
209.000000	64.626	156.0610
212.000000	64.613	156.9258
214.000000	64.612	157.4893
218.000000	64.622	158.5374
220.000000	64.633	159.0106
224.000000	64.666	159.8229
227.000000	64.699	160.2833
230.000000	64.732	160.6056
233.000000	64.760	160.8109
236.000000	64.779	160.9389
240.000000	64.793	161.0536
243.000000	64.796	161.1213
247.000000	64.795	161.1796
250.000000	64.792	161.1794
254.000000	64.783	161.1016
258.000000	64.763	160.9500
262.000000	64.725	160.7732
265.000000	64.685	160.6563
269.000000	64.620	160.5486
272.000000	64.565	160.5117
276.000000	64.486	160.5247
280.000000	64.404	160.6061
285.000000	64.301	160.7956
290.000000	64.201	161.0643
295.000000	64.105	161.3932
300.000000	64.014	161.7639
304.000000	63.943	162.0778
307.000000	63.891	162.3188
311.000000	63.823	162.6469
315.000000	63.755	162.9851
320.000000	63.671	163.4262
325.000000	63.589	163.8940
330.000000	63.508	164.4011
335.000000	63.432	164.9603
340.000000	63.365	165.5769
345.000000	63.307	166.2472
350.000000	63.255	166.9624
355.000000	63.213	167.6995
360.000000	63.185	168.4155
365.000000	63.174	169.0664
370.000000	63.172	169.6268
375.000000	63.170	170.0953
382.000000	63.161	170.6307
387.000000	63.147	170.9590
395.000000	63.114	171.4465
400.000000	63.086	171.7535
406.000000	63.046	172.1444
412.000000	62.999	172.5707
418.000000	62.949	173.0389
425.000000	62.890	173.6393
431.000000	62.840	174.1981
437.000000	62.793	174.7946
444.000000	62.742	175.5360
450.000000	62.704	176.2062
455.000000	62.679	176.7842
462.000000	62.654	177.6099
468.000000	62.641	178.3187
475.000000	62.635	179.1297
482.000000	62.635	179.9091
487.000000	62.637	-179.5571
494.000000	62.642	-178.8407
500.000000	62.649	-178.2502
508.000000	62.661	-177.4886
515.000000	62.675	-176.8427
522.000000	62.691	-176.2151
530.000000	62.709	-175.5194
538.000000	62.728	-174.8456
545.000000	62.747	-174.2734
552.000000	62.767	-173.7176
560.000000	62.793	-173.1034
570.000000	62.828	-172.3699
580.000000	62.865	-171.6810
590.000000	62.901	-171.0423
600.000000	62.932	-170.4492
608.000000	62.953	-169.9970
615.000000	62.968	-169.6103
622.000000	62.982	-169.2280
630.000000	62.996	-168.7919
640.000000	63.011	-168.2430
650.000000	63.024	-167.6848
660.000000	63.038	-167.1118
670.000000	63.052	-166.5221
680.000000	63.065	-165.9187
690.000000	63.077	-165.3072
700.000000	63.091	-164.6908
710.000000	63.106	-164.0702
720.000000	63.122	-163.4446
730.000000	63.139	-162.8147
740.000000	63.159	-162.1820
750.000000	63.180	-161.5456
762.000000	63.205	-160.7750
775.000000	63.233	-159.9295
788.000000	63.263	-159.0718
800.000000	63.294	-158.2700
812.000000	63.327	-157.4590
825.000000	63.366	-156.5687
838.000000	63.409	-155.6685
850.000000	63.455	-154.8373
862.000000	63.508	-154.0170
875.000000	63.572	-153.1508
885.000000	63.624	-152.5021
900.000000	63.706	-151.5522
912.000000	63.772	-150.8074
925.000000	63.846	-150.0141
938.000000	63.924	-149.2382
950.000000	63.999	-148.5429
962.000000	64.078	-147.8716
975.000000	64.167	-147.1738
988.000000	64.259	-146.5076
1000.000000	64.347	-145.9224
1015.000000	64.458	-145.2332
1030.000000	64.570	-144.5891
1044.000000	64.676	-144.0261
1060.000000	64.798	-143.4252
1075.000000	64.912	-142.9007
1090.000000	65.024	-142.4109
1106.000000	65.142	-141.9220
1120.000000	65.245	-141.5196
1138.000000	65.379	-141.0338
1150.000000	65.468	-140.7276
1172.000000	65.633	-140.1972
1180.000000	65.694	-140.0137
1206.000000	65.902	-139.4565
1220.000000	66.020	-139.1840
1241.000000	66.208	-138.8135
1250.000000	66.293	-138.6672
1265.000000	66.439	-138.4363
1280.000000	66.588	-138.2167
1315.000000	66.907	-137.7207
1320.000000	66.946	-137.6497
1340.000000	67.069	-137.3629
1360.000000	67.145	-137.0709
1380.000000	67.186	-136.7760
1400.000000	67.217	-136.4840
1430.000000	67.288	-136.0636
1450.000000	67.367	-135.8029
1475.000000	67.498	-135.5038
1500.000000	67.656	-135.2345
1525.000000	67.829	-134.9908
1550.000000	68.008	-134.7680
1575.000000	68.188	-134.5645
1600.000000	68.367	-134.3812
1625.000000	68.546	-134.2189
1650.000000	68.724	-134.0795
1675.000000	68.902	-133.9655
1700.000000	69.081	-133.8825
1725.000000	69.260	-133.8357
1750.000000	69.440	-133.8280
1775.000000	69.618	-133.8617
1800.000000	69.796	-133.9383
1825.000000	69.974	-134.0580
1850.000000	70.153	-134.2222
1875.000000	70.332	-134.4332
1900.000000	70.510	-134.6956
1925.000000	70.688	-135.0147
1950.000000	70.865	-135.3972
1975.000000	71.041	-135.8507
2000.000000	71.215	-136.3816
2030.000000	71.417	-137.1247
2060.000000	71.612	-137.9802
2090.000000	71.795	-138.9374
2120.000000	71.965	-139.9825
2140.000000	72.072	-140.7226
2180.000000	72.265	-142.2948
2200.000000	72.353	-143.1214
2240.000000	72.508	-144.8392
2270.000000	72.606	-146.1698
2300.000000	72.689	-147.5248
2330.000000	72.756	-148.8955
2360.000000	72.807	-150.2740
2400.000000	72.849	-152.1078
2430.000000	72.863	-153.4655
2470.000000	72.859	-155.2309
2500.000000	72.839	-156.5077
2540.000000	72.792	-158.1300
2580.000000	72.725	-159.6467
2620.000000	72.640	-161.0458
2650.000000	72.566	-162.0128
2690.000000	72.458	-163.1879
2720.000000	72.370	-163.9829
2760.000000	72.246	-164.9285
2800.000000	72.118	-165.7455
2850.000000	71.955	-166.5923
2900.000000	71.791	-167.2552
2950.000000	71.628	-167.7469
3000.000000	71.466	-168.0797
3040.000000	71.340	-168.2403
3070.000000	71.247	-168.3035
3110.000000	71.128	-168.3165
3150.000000	71.016	-168.2542
3200.000000	70.887	-168.0817
3250.000000	70.769	-167.8155
3300.000000	70.661	-167.4653
3350.000000	70.561	-167.0403
3400.000000	70.469	-166.5505
3450.000000	70.382	-166.0054
3500.000000	70.303	-165.4131
3550.000000	70.232	-164.7799
3600.000000	70.174	-164.1129
3650.000000	70.132	-163.4185
3700.000000	70.110	-162.7025
3750.000000	70.109	-161.9710
3820.000000	70.142	-160.9332
3870.000000	70.185	-160.1905
3950.000000	70.280	-159.0150
4000.000000	70.349	-158.2970
4060.000000	70.435	-157.4622
4120.000000	70.521	-156.6669
4180.000000	70.604	-155.9214
4250.000000	70.701	-155.1283
4310.000000	70.789	-154.5251
4370.000000	70.891	-154.0041
4440.000000	71.033	-153.5126
4500.000000	71.181	-153.2004
4550.000000	71.321	-153.0242
4620.000000	71.537	-152.9189
4680.000000	71.733	-152.9685
4750.000000	71.966	-153.1972
4820.000000	72.196	-153.6187
4870.000000	72.355	-154.0429
4940.000000	72.566	-154.8121
5000.000000	72.733	-155.6322
5080.000000	72.933	-156.9455
5150.000000	73.078	-158.2839
5220.000000	73.192	-159.7744
5300.000000	73.279	-161.6239
5380.000000	73.316	-163.5747
5450.000000	73.305	-165.3124
5520.000000	73.257	-167.0271
5600.000000	73.165	-168.8968
5700.000000	73.003	-171.0040
5800.000000	72.801	-172.7655
5900.000000	72.581	-174.1224
6000.000000	72.356	-175.0533
6080.000000	72.175	-175.4979
6150.000000	72.017	-175.6824
6220.000000	71.863	-175.6924
6300.000000	71.695	-175.5144
6400.000000	71.510	-175.0545
6500.000000	71.365	-174.3915
6600.000000	71.267	-173.5942
6700.000000	71.224	-172.7332
6800.000000	71.245	-171.8812
6900.000000	71.333	-171.1169
7000.000000	71.490	-170.5319
7100.000000	71.723	-170.2428
7200.000000	72.036	-170.3973
7300.000000	72.425	-171.1705
7400.000000	72.875	-172.7531
7500.000000	73.357	-175.3268
7620.000000	73.905	-179.8884
7750.000000	74.329	173.4029
7880.000000	74.422	165.3339
8000.000000	74.134	157.4547
8120.000000	73.486	150.0111
8250.000000	72.441	143.2397
8380.000000	71.156	138.3005
8500.000000	69.866	135.4819
8620.000000	68.561	134.2355
8750.000000	67.196	134.4420
8850.000000	66.203	135.5511
9000.000000	64.820	138.5498
9120.000000	63.815	141.9888
9250.000000	62.845	146.6711
9380.000000	62.030	152.2209
9500.000000	61.457	157.8730
9620.000000	61.082	163.6561
9750.000000	60.894	169.5773
9880.000000	60.884	174.7386
10000.000000	60.976	178.7012
10150.000000	61.158	-177.3042
10300.000000	61.364	-174.0876
10440.000000	61.564	-171.5412
10600.000000	61.809	-168.9984
10750.000000	62.074	-166.9277
10900.000000	62.386	-165.2063
11060.000000	62.775	-163.8612
11200.000000	63.153	-163.2061
11380.000000	63.665	-163.2260
11500.000000	64.006	-163.8420
11720.000000	64.586	-166.2759
11800.000000	64.768	-167.5615
12060.000000	65.178	-172.9369
12200.000000	65.251	-176.3468
12410.000000	65.144	178.3392
12500.000000	65.018	176.1194
12650.000000	64.709	172.6514
12800.000000	64.283	169.5991
13150.000000	62.892	164.5622
13200.000000	62.655	164.0937
13400.000000	61.647	162.8156
13600.000000	60.614	162.4043
13800.000000	59.655	162.7286
14000.000000	58.835	163.6416
14300.000000	57.924	165.6614
14500.000000	57.527	166.9943
14750.000000	57.206	167.9943
15000.000000	56.955	167.6791
15250.000000	56.589	165.8726
15500.000000	55.934	163.1141
15750.000000	54.930	160.4736
16000.000000	53.675	158.9926
16250.000000	52.345	159.3220
16500.000000	51.109	161.6709
16750.000000	50.083	165.8856
17000.000000	49.344	171.4684
17250.000000	48.925	177.4909
17500.000000	48.772	-177.3307
17750.000000	48.707	-173.8892
18000.000000	48.516	-171.4572
18250.000000	48.218	-167.9656
18500.000000	48.085	-162.9575
18750.000000	48.208	-158.5726
19000.000000	48.384	-156.4437
19250.000000	48.385	-156.4327
19500.000000	48.111	-157.6414
19750.000000	47.644	-159.1055
20000.000000	47.272	-160.0171
