* Measurement data measured by REW V5.31.3
* Source: Microphone (6- USB Sound Device        ), MICROPHONE (Master Volume), L, volume: 0.700
* Format: 256k Log Swept Sine, 1 sweep at -12.0 dBFS with no timing reference
* Dated: 23-May-2025 16:22:11
* REW Settings:
*  C-weighting compensation: Off
*  Target level: 75.0 dB
* Note: 
* Measurement: KZ AM16 BI L
* Smoothing: 1/12 octave
* Frequency Step: 1/48 octave
* Start Frequency: 20.300 Hz
*
* Freq(Hz)	SPL(dB)	Phase(degrees)
20.299999	71.046	-160.8698
20.600000	71.034	-161.3408
20.900000	71.019	-161.9320
21.200001	71.003	-162.5674
21.400000	70.992	-163.0012
21.799999	70.971	-163.8799
22.000000	70.960	-164.3209
22.400000	70.941	-165.1966
22.700001	70.927	-165.8409
23.000000	70.913	-166.4706
23.299999	70.900	-167.0851
23.600000	70.887	-167.6863
24.000000	70.869	-168.4726
24.299999	70.854	-169.0543
24.700001	70.834	-169.8218
25.000000	70.818	-170.3911
25.400000	70.796	-171.1396
25.799999	70.774	-171.8730
26.200001	70.751	-172.5882
26.500000	70.733	-173.1116
26.900000	70.708	-173.7923
27.200001	70.689	-174.2909
27.600000	70.663	-174.9427
28.000000	70.637	-175.5833
28.500000	70.604	-176.3720
29.000000	70.572	-177.1476
29.500000	70.539	-177.9071
30.000000	70.507	-178.6483
30.400000	70.481	-179.2290
30.700001	70.462	-179.6587
31.100000	70.435	179.7749
31.500000	70.409	179.2147
32.000000	70.376	178.5228
32.500000	70.343	177.8406
33.000000	70.311	177.1674
33.500000	70.279	176.5014
34.000000	70.247	175.8407
34.500000	70.217	175.1861
35.000000	70.185	174.5404
35.500000	70.153	173.9069
36.000000	70.122	173.2863
36.500000	70.090	172.6766
37.000000	70.059	172.0751
37.500000	70.027	171.4803
38.200001	69.979	170.6603
38.700001	69.944	170.0854
39.500000	69.888	169.1867
40.000000	69.854	168.6389
40.599998	69.815	167.9971
41.200001	69.778	167.3733
41.799999	69.742	166.7669
42.500000	69.698	166.0760
43.099998	69.659	165.4909
43.700001	69.617	164.9080
44.400002	69.569	164.2279
45.000000	69.528	163.6454
45.500000	69.493	163.1623
46.200001	69.443	162.4942
46.799999	69.401	161.9331
47.500000	69.354	161.2945
48.200001	69.312	160.6753
48.700001	69.285	160.2449
49.400002	69.247	159.6552
50.000000	69.211	159.1568
50.799999	69.151	158.5010
51.500000	69.091	157.9384
52.200001	69.031	157.3859
53.000000	68.966	156.7625
53.799999	68.903	156.1469
54.500000	68.851	155.6163
55.200001	68.800	155.0937
56.000000	68.741	154.5067
57.000000	68.667	153.7913
58.000000	68.591	153.0939
59.000000	68.515	152.4066
60.000000	68.439	151.7260
60.799999	68.379	151.1902
61.500000	68.326	150.7312
62.200001	68.275	150.2831
63.000000	68.217	149.7842
64.000000	68.145	149.1771
65.000000	68.072	148.5830
66.000000	67.999	147.9984
67.000000	67.924	147.4258
68.000000	67.847	146.8688
69.000000	67.768	146.3270
70.000000	67.688	145.7986
71.000000	67.609	145.2821
72.000000	67.533	144.7747
73.000000	67.459	144.2732
74.000000	67.386	143.7775
75.000000	67.312	143.2910
76.199997	67.221	142.7249
77.500000	67.120	142.1350
78.800003	67.019	141.5693
80.000000	66.925	141.0689
81.199997	66.831	140.5884
82.500000	66.731	140.0879
83.800003	66.632	139.6074
85.000000	66.542	139.1818
86.199997	66.453	138.7719
87.500000	66.357	138.3419
88.500000	66.283	138.0189
90.000000	66.173	137.5426
91.199997	66.085	137.1663
92.500000	65.991	136.7661
93.800003	65.897	136.3737
95.000000	65.811	136.0131
96.199997	65.723	135.6506
97.500000	65.625	135.2571
98.800003	65.527	134.8672
100.000000	65.436	134.5159
101.500000	65.324	134.0948
103.000000	65.214	133.6975
104.400002	65.110	133.3480
106.000000	64.989	132.9725
107.500000	64.874	132.6414
109.000000	64.759	132.3309
110.599998	64.636	132.0258
112.000000	64.529	131.7798
113.800003	64.390	131.4832
115.000000	64.298	131.2942
117.199997	64.130	130.9688
118.000000	64.069	130.8576
120.599998	63.874	130.5182
122.000000	63.770	130.3520
124.099998	63.616	130.1332
125.000000	63.550	130.0500
126.500000	63.440	129.9223
128.000000	63.329	129.8068
131.500000	63.075	129.5932
132.000000	63.039	129.5694
134.000000	62.895	129.4886
136.000000	62.753	129.4290
138.000000	62.609	129.3868
140.000000	62.466	129.3641
143.000000	62.254	129.3715
145.000000	62.115	129.4046
147.500000	61.943	129.4754
150.000000	61.775	129.5702
152.500000	61.610	129.6814
155.000000	61.448	129.8142
157.500000	61.286	129.9787
160.000000	61.125	130.1774
162.500000	60.970	130.4075
165.000000	60.820	130.6668
167.500000	60.675	130.9504
170.000000	60.531	131.2518
172.500000	60.388	131.5699
175.000000	60.246	131.9009
177.500000	60.102	132.2472
180.000000	59.950	132.6201
182.500000	59.790	133.0395
185.000000	59.619	133.5223
187.500000	59.440	134.0684
190.000000	59.260	134.6761
192.500000	59.090	135.3501
195.000000	58.940	136.0952
197.500000	58.817	136.9086
200.000000	58.723	137.7704
203.000000	58.649	138.8194
206.000000	58.615	139.8209
209.000000	58.610	140.7164
212.000000	58.614	141.4728
214.000000	58.616	141.8942
218.000000	58.605	142.5459
220.000000	58.589	142.7924
224.000000	58.533	143.1995
227.000000	58.471	143.4883
230.000000	58.397	143.8010
233.000000	58.317	144.1504
236.000000	58.236	144.5358
240.000000	58.130	145.0953
243.000000	58.052	145.5468
247.000000	57.948	146.1876
250.000000	57.872	146.6919
254.000000	57.778	147.3885
258.000000	57.689	148.1085
262.000000	57.605	148.8506
265.000000	57.545	149.4196
269.000000	57.472	150.1852
272.000000	57.420	150.7595
276.000000	57.356	151.5223
280.000000	57.297	152.2803
285.000000	57.229	153.2196
290.000000	57.168	154.1558
295.000000	57.113	155.0914
300.000000	57.064	156.0219
304.000000	57.028	156.7568
307.000000	57.003	157.3018
311.000000	56.973	158.0195
315.000000	56.946	158.7241
320.000000	56.918	159.5849
325.000000	56.896	160.4245
330.000000	56.880	161.2448
335.000000	56.870	162.0486
340.000000	56.868	162.8337
345.000000	56.871	163.5955
350.000000	56.874	164.3250
355.000000	56.874	165.0136
360.000000	56.873	165.6631
365.000000	56.874	166.2799
370.000000	56.874	166.8730
375.000000	56.871	167.4547
382.000000	56.863	168.2733
387.000000	56.858	168.8733
395.000000	56.857	169.8691
400.000000	56.862	170.5095
406.000000	56.875	171.2836
412.000000	56.896	172.0410
418.000000	56.922	172.7565
425.000000	56.957	173.5210
431.000000	56.990	174.1213
437.000000	57.021	174.6832
444.000000	57.057	175.3005
450.000000	57.089	175.7960
455.000000	57.118	176.1817
462.000000	57.160	176.6812
468.000000	57.195	177.0810
475.000000	57.234	177.5301
482.000000	57.270	177.9713
487.000000	57.292	178.2803
494.000000	57.321	178.6964
500.000000	57.345	179.0343
508.000000	57.377	179.4634
515.000000	57.404	179.8280
522.000000	57.427	-179.8119
530.000000	57.449	-179.4082
538.000000	57.469	-179.0134
545.000000	57.485	-178.6715
552.000000	57.501	-178.3305
560.000000	57.519	-177.9411
570.000000	57.542	-177.4539
580.000000	57.562	-176.9722
590.000000	57.581	-176.5010
600.000000	57.596	-176.0362
608.000000	57.605	-175.6643
615.000000	57.613	-175.3366
622.000000	57.620	-175.0062
630.000000	57.628	-174.6268
640.000000	57.638	-174.1514
650.000000	57.649	-173.6712
660.000000	57.662	-173.1813
670.000000	57.676	-172.6800
680.000000	57.690	-172.1722
690.000000	57.704	-171.6654
700.000000	57.718	-171.1645
710.000000	57.734	-170.6701
720.000000	57.750	-170.1786
730.000000	57.766	-169.6841
740.000000	57.782	-169.1831
750.000000	57.800	-168.6757
762.000000	57.822	-168.0600
775.000000	57.846	-167.3848
788.000000	57.874	-166.7019
800.000000	57.903	-166.0719
812.000000	57.935	-165.4498
825.000000	57.970	-164.7894
838.000000	58.008	-164.1418
850.000000	58.044	-163.5538
862.000000	58.083	-162.9771
875.000000	58.129	-162.3661
885.000000	58.166	-161.9067
900.000000	58.224	-161.2352
912.000000	58.271	-160.7129
925.000000	58.322	-160.1620
938.000000	58.374	-159.6281
950.000000	58.424	-159.1520
962.000000	58.475	-158.6932
975.000000	58.532	-158.2164
988.000000	58.592	-157.7622
1000.000000	58.649	-157.3661
1015.000000	58.720	-156.9044
1030.000000	58.789	-156.4815
1044.000000	58.854	-156.1223
1060.000000	58.927	-155.7500
1075.000000	58.993	-155.4317
1090.000000	59.056	-155.1374
1106.000000	59.120	-154.8463
1120.000000	59.175	-154.6089
1138.000000	59.244	-154.3267
1150.000000	59.290	-154.1523
1172.000000	59.370	-153.8576
1180.000000	59.399	-153.7570
1206.000000	59.494	-153.4416
1220.000000	59.549	-153.2719
1241.000000	59.638	-153.0092
1250.000000	59.680	-152.8920
1265.000000	59.755	-152.6887
1280.000000	59.833	-152.4734
1315.000000	59.992	-151.9214
1320.000000	60.008	-151.8369
1340.000000	60.043	-151.4850
1360.000000	60.030	-151.1109
1380.000000	59.980	-150.7150
1400.000000	59.917	-150.2981
1430.000000	59.844	-149.6364
1450.000000	59.826	-149.1719
1475.000000	59.836	-148.5687
1500.000000	59.875	-147.9448
1525.000000	59.931	-147.2966
1550.000000	59.996	-146.6182
1575.000000	60.065	-145.9095
1600.000000	60.138	-145.1742
1625.000000	60.214	-144.4183
1650.000000	60.294	-143.6502
1675.000000	60.378	-142.8757
1700.000000	60.466	-142.0991
1725.000000	60.558	-141.3228
1750.000000	60.655	-140.5481
1775.000000	60.755	-139.7772
1800.000000	60.860	-139.0139
1825.000000	60.971	-138.2613
1850.000000	61.087	-137.5203
1875.000000	61.209	-136.7931
1900.000000	61.335	-136.0827
1925.000000	61.466	-135.3911
1950.000000	61.601	-134.7206
1975.000000	61.742	-134.0760
2000.000000	61.890	-133.4629
2030.000000	62.074	-132.7763
2060.000000	62.266	-132.1500
2090.000000	62.463	-131.5880
2120.000000	62.664	-131.0922
2140.000000	62.800	-130.7970
2180.000000	63.076	-130.2837
2200.000000	63.216	-130.0634
2240.000000	63.500	-129.6930
2270.000000	63.718	-129.4753
2300.000000	63.939	-129.3108
2330.000000	64.165	-129.2047
2360.000000	64.395	-129.1647
2400.000000	64.708	-129.2305
2430.000000	64.947	-129.3815
2470.000000	65.269	-129.7348
2500.000000	65.511	-130.1210
2540.000000	65.831	-130.8036
2580.000000	66.146	-131.6796
2620.000000	66.453	-132.7484
2650.000000	66.676	-133.6760
2690.000000	66.962	-135.0798
2720.000000	67.166	-136.2568
2760.000000	67.423	-137.9891
2800.000000	67.659	-139.9021
2850.000000	67.921	-142.5366
2900.000000	68.139	-145.4234
2950.000000	68.305	-148.5342
3000.000000	68.410	-151.8265
3040.000000	68.446	-154.5515
3070.000000	68.445	-156.6240
3110.000000	68.404	-159.3942
3150.000000	68.319	-162.1345
3200.000000	68.152	-165.4541
3250.000000	67.917	-168.5791
3300.000000	67.618	-171.4278
3350.000000	67.262	-173.9231
3400.000000	66.856	-175.9967
3450.000000	66.409	-177.5886
3500.000000	65.933	-178.6478
3550.000000	65.443	-179.1423
3600.000000	64.957	-179.0622
3650.000000	64.493	-178.4121
3700.000000	64.073	-177.2182
3750.000000	63.715	-175.5363
3820.000000	63.346	-172.5399
3870.000000	63.186	-170.1114
3950.000000	63.105	-166.1220
4000.000000	63.150	-163.7753
4060.000000	63.274	-161.2826
4120.000000	63.448	-159.2368
4180.000000	63.647	-157.6694
4250.000000	63.886	-156.4240
4310.000000	64.088	-155.8116
4370.000000	64.280	-155.5705
4440.000000	64.489	-155.6940
4500.000000	64.653	-156.0770
4550.000000	64.775	-156.5336
4620.000000	64.918	-157.2904
4680.000000	65.017	-157.9832
4750.000000	65.104	-158.8062
4820.000000	65.162	-159.6552
4870.000000	65.180	-160.2854
4940.000000	65.165	-161.1645
5000.000000	65.107	-161.8184
5080.000000	64.973	-162.3072
5150.000000	64.832	-162.1849
5220.000000	64.714	-161.5045
5300.000000	64.661	-160.2427
5380.000000	64.719	-158.8875
5450.000000	64.850	-157.9785
5520.000000	65.030	-157.5234
5600.000000	65.254	-157.6063
5700.000000	65.507	-158.4487
5800.000000	65.697	-159.7797
5900.000000	65.826	-161.2728
6000.000000	65.903	-162.6992
6080.000000	65.935	-163.7092
6150.000000	65.946	-164.4734
6220.000000	65.946	-165.1224
6300.000000	65.941	-165.7324
6400.000000	65.939	-166.3304
6500.000000	65.957	-166.7934
6600.000000	66.002	-167.1658
6700.000000	66.085	-167.4888
6800.000000	66.216	-167.8106
6900.000000	66.403	-168.1931
7000.000000	66.653	-168.7212
7100.000000	66.977	-169.5209
7200.000000	67.385	-170.7702
7300.000000	67.869	-172.6868
7400.000000	68.410	-175.4924
7500.000000	68.970	-179.3624
7620.000000	69.588	174.4909
7750.000000	70.066	166.1415
7880.000000	70.216	156.5499
8000.000000	70.007	147.2440
8120.000000	69.473	138.1159
8250.000000	68.576	128.9637
8380.000000	67.426	120.9290
8500.000000	66.209	114.6523
8620.000000	64.889	109.5178
8750.000000	63.372	105.2769
8850.000000	62.153	102.9925
9000.000000	60.250	101.3185
9120.000000	58.676	101.6993
9250.000000	56.955	104.1536
9380.000000	55.288	109.0740
9500.000000	53.909	115.9487
9620.000000	52.821	124.7142
9750.000000	52.102	135.1763
9880.000000	51.880	144.9900
10000.000000	52.021	152.4250
10150.000000	52.457	159.1253
10300.000000	52.988	163.2645
10440.000000	53.455	165.3507
10600.000000	53.888	166.2501
10750.000000	54.171	166.1541
10900.000000	54.333	165.5810
11060.000000	54.389	164.8393
11200.000000	54.364	164.2956
11380.000000	54.274	163.8175
11500.000000	54.194	163.5774
11720.000000	54.023	163.1173
11800.000000	53.950	162.9185
12060.000000	53.644	162.1815
12200.000000	53.419	161.8009
12410.000000	52.993	161.4229
12500.000000	52.776	161.3824
12650.000000	52.370	161.5405
12800.000000	51.905	162.0353
13150.000000	50.567	164.7461
13200.000000	50.347	165.3270
13400.000000	49.415	168.1818
13600.000000	48.464	171.9782
13800.000000	47.603	176.7840
14000.000000	46.908	-177.4285
14300.000000	46.296	-166.1762
14500.000000	46.409	-156.1523
14750.000000	47.496	-143.0783
15000.000000	49.326	-135.8815
15250.000000	51.151	-136.5312
15500.000000	52.546	-142.9306
15750.000000	53.146	-152.8660
16000.000000	52.765	-162.8235
16250.000000	51.674	-170.2808
16500.000000	50.304	-174.4906
16750.000000	48.970	-175.7793
17000.000000	47.791	-174.7591
17250.000000	46.789	-171.8967
17500.000000	45.969	-167.7124
17750.000000	45.333	-162.7281
18000.000000	44.881	-157.3411
18250.000000	44.598	-151.8072
18500.000000	44.453	-146.2977
18750.000000	44.414	-140.9641
19000.000000	44.448	-135.9911
19250.000000	44.512	-131.6259
19500.000000	44.552	-128.1346
19750.000000	44.540	-125.7362
20000.000000	44.511	-124.5592
