* Measurement data measured by REW V5.31.3
* Source: Microphone (6- USB Sound Device        ), MICROPHONE (Master Volume), L, volume: 0.700
* Format: 256k Log Swept Sine, 1 sweep at -12.0 dBFS with no timing reference
* Dated: 23-May-2025 16:22:25
* REW Settings:
*  C-weighting compensation: Off
*  Target level: 75.0 dB
* Note: 
* Measurement: KZ AM16 BI L
* Smoothing: 1/12 octave
* Frequency Step: 1/48 octave
* Start Frequency: 20.300 Hz
*
* Freq(Hz)	SPL(dB)	Phase(degrees)
20.299999	71.051	-160.7812
20.600000	71.040	-161.2583
20.900000	71.024	-161.8551
21.200001	71.008	-162.4947
21.400000	70.998	-162.9313
21.799999	70.977	-163.8181
22.000000	70.967	-164.2652
22.400000	70.949	-165.1566
22.700001	70.935	-165.8132
23.000000	70.921	-166.4530
23.299999	70.908	-167.0736
23.600000	70.895	-167.6768
24.000000	70.877	-168.4610
24.299999	70.863	-169.0392
24.700001	70.843	-169.8006
25.000000	70.827	-170.3638
25.400000	70.806	-171.1013
25.799999	70.785	-171.8204
26.200001	70.763	-172.5210
26.500000	70.747	-173.0358
26.900000	70.724	-173.7096
27.200001	70.706	-174.2065
27.600000	70.681	-174.8588
28.000000	70.655	-175.5012
28.500000	70.624	-176.2958
29.000000	70.593	-177.0861
29.500000	70.562	-177.8711
30.000000	70.532	-178.6420
30.400000	70.507	-179.2422
30.700001	70.488	-179.6815
31.100000	70.464	179.7462
31.500000	70.439	179.1854
32.000000	70.408	178.4946
32.500000	70.378	177.8112
33.000000	70.348	177.1348
33.500000	70.317	176.4669
34.000000	70.287	175.8093
34.500000	70.257	175.1639
35.000000	70.226	174.5328
35.500000	70.194	173.9166
36.000000	70.162	173.3126
36.500000	70.131	172.7165
37.000000	70.100	172.1249
37.500000	70.068	171.5375
38.200001	70.023	170.7250
38.700001	69.990	170.1538
39.500000	69.935	169.2576
40.000000	69.900	168.7097
40.599998	69.858	168.0650
41.200001	69.819	167.4332
41.799999	69.781	166.8125
42.500000	69.739	166.1021
43.099998	69.701	165.5052
43.700001	69.662	164.9185
44.400002	69.615	164.2440
45.000000	69.575	163.6724
45.500000	69.541	163.2003
46.200001	69.494	162.5472
46.799999	69.453	161.9972
47.500000	69.407	161.3690
48.200001	69.365	160.7539
48.700001	69.338	160.3206
49.400002	69.300	159.7204
50.000000	69.264	159.2127
50.799999	69.205	158.5475
51.500000	69.148	157.9769
52.200001	69.091	157.4156
53.000000	69.028	156.7855
53.799999	68.968	156.1696
54.500000	68.918	155.6423
55.200001	68.868	155.1238
56.000000	68.810	154.5417
57.000000	68.736	153.8309
58.000000	68.662	153.1345
59.000000	68.587	152.4452
60.000000	68.513	151.7668
60.799999	68.454	151.2373
61.500000	68.403	150.7847
62.200001	68.352	150.3404
63.000000	68.294	149.8402
64.000000	68.223	149.2246
65.000000	68.152	148.6213
66.000000	68.081	148.0320
67.000000	68.009	147.4566
68.000000	67.934	146.8945
69.000000	67.857	146.3470
70.000000	67.778	145.8143
71.000000	67.700	145.2947
72.000000	67.624	144.7865
73.000000	67.549	144.2892
74.000000	67.476	143.8047
75.000000	67.402	143.3344
76.199997	67.312	142.7859
77.500000	67.213	142.2065
78.800003	67.114	141.6428
80.000000	67.022	141.1402
81.199997	66.929	140.6577
82.500000	66.829	140.1584
83.800003	66.731	139.6814
85.000000	66.640	139.2552
86.199997	66.550	138.8376
87.500000	66.451	138.3932
88.500000	66.375	138.0573
90.000000	66.263	137.5589
91.199997	66.177	137.1604
92.500000	66.089	136.7300
93.800003	66.003	136.3126
95.000000	65.922	135.9474
96.199997	65.838	135.5991
97.500000	65.742	135.2344
98.800003	65.641	134.8707
100.000000	65.548	134.5293
101.500000	65.434	134.1101
103.000000	65.324	133.7194
104.400002	65.220	133.3783
106.000000	65.098	133.0065
107.500000	64.984	132.6772
109.000000	64.869	132.3737
110.599998	64.745	132.0713
112.000000	64.637	131.8151
113.800003	64.501	131.5027
115.000000	64.409	131.3093
117.199997	64.241	130.9852
118.000000	64.181	130.8766
120.599998	63.988	130.5394
122.000000	63.883	130.3704
124.099998	63.727	130.1539
125.000000	63.661	130.0753
126.500000	63.552	129.9559
128.000000	63.443	129.8431
131.500000	63.185	129.6078
132.000000	63.148	129.5825
134.000000	63.000	129.5115
136.000000	62.855	129.4803
138.000000	62.714	129.4670
140.000000	62.575	129.4564
143.000000	62.371	129.4521
145.000000	62.237	129.4679
147.500000	62.071	129.5079
150.000000	61.908	129.5660
152.500000	61.747	129.6496
155.000000	61.586	129.7789
157.500000	61.425	129.9653
160.000000	61.267	130.1954
162.500000	61.112	130.4494
165.000000	60.959	130.7200
167.500000	60.807	131.0015
170.000000	60.656	131.2855
172.500000	60.509	131.5698
175.000000	60.366	131.8759
177.500000	60.222	132.2308
180.000000	60.071	132.6379
182.500000	59.911	133.0936
185.000000	59.742	133.6000
187.500000	59.564	134.1633
190.000000	59.385	134.7955
192.500000	59.217	135.5040
195.000000	59.071	136.2847
197.500000	58.952	137.1284
200.000000	58.864	138.0105
203.000000	58.801	139.0570
206.000000	58.777	140.0217
209.000000	58.780	140.8517
212.000000	58.790	141.5237
214.000000	58.791	141.8858
218.000000	58.769	142.4385
220.000000	58.745	142.6557
224.000000	58.671	143.0471
227.000000	58.601	143.3505
230.000000	58.522	143.6839
233.000000	58.440	144.0522
236.000000	58.358	144.4534
240.000000	58.251	145.0292
243.000000	58.170	145.4879
247.000000	58.063	146.1352
250.000000	57.985	146.6438
254.000000	57.888	147.3455
258.000000	57.797	148.0696
262.000000	57.711	148.8131
265.000000	57.650	149.3806
269.000000	57.575	150.1447
272.000000	57.523	150.7198
276.000000	57.458	151.4857
280.000000	57.398	152.2496
285.000000	57.329	153.2027
290.000000	57.266	154.1510
295.000000	57.210	155.0911
300.000000	57.160	156.0195
304.000000	57.123	156.7501
307.000000	57.098	157.2900
311.000000	57.068	158.0004
315.000000	57.041	158.7010
320.000000	57.012	159.5642
325.000000	56.990	160.4105
330.000000	56.972	161.2366
335.000000	56.961	162.0476
340.000000	56.957	162.8433
345.000000	56.960	163.6128
350.000000	56.963	164.3448
355.000000	56.963	165.0340
360.000000	56.962	165.6793
365.000000	56.962	166.2879
370.000000	56.961	166.8744
375.000000	56.957	167.4541
382.000000	56.947	168.2763
387.000000	56.941	168.8803
395.000000	56.938	169.8809
400.000000	56.942	170.5258
406.000000	56.953	171.3046
412.000000	56.971	172.0644
418.000000	56.995	172.7812
425.000000	57.029	173.5479
431.000000	57.060	174.1476
437.000000	57.089	174.7060
444.000000	57.123	175.3159
450.000000	57.154	175.8043
455.000000	57.181	176.1859
462.000000	57.221	176.6837
468.000000	57.253	177.0856
475.000000	57.289	177.5386
482.000000	57.322	177.9813
487.000000	57.343	178.2898
494.000000	57.371	178.7062
500.000000	57.394	179.0473
508.000000	57.424	179.4802
515.000000	57.449	179.8419
522.000000	57.471	-179.8056
530.000000	57.492	-179.4079
538.000000	57.510	-179.0115
545.000000	57.524	-178.6647
552.000000	57.538	-178.3187
560.000000	57.555	-177.9250
570.000000	57.575	-177.4377
580.000000	57.595	-176.9590
590.000000	57.612	-176.4881
600.000000	57.626	-176.0227
608.000000	57.634	-175.6506
615.000000	57.640	-175.3232
622.000000	57.647	-174.9937
630.000000	57.653	-174.6153
640.000000	57.662	-174.1387
650.000000	57.671	-173.6555
660.000000	57.683	-173.1652
670.000000	57.697	-172.6674
680.000000	57.710	-172.1630
690.000000	57.722	-171.6565
700.000000	57.734	-171.1533
710.000000	57.748	-170.6585
720.000000	57.761	-170.1692
730.000000	57.775	-169.6771
740.000000	57.789	-169.1783
750.000000	57.803	-168.6733
762.000000	57.822	-168.0572
775.000000	57.843	-167.3791
788.000000	57.867	-166.6970
800.000000	57.894	-166.0704
812.000000	57.923	-165.4513
825.000000	57.956	-164.7902
838.000000	57.990	-164.1414
850.000000	58.024	-163.5552
862.000000	58.061	-162.9797
875.000000	58.104	-162.3685
885.000000	58.140	-161.9084
900.000000	58.194	-161.2354
912.000000	58.237	-160.7115
925.000000	58.285	-160.1598
938.000000	58.335	-159.6265
950.000000	58.382	-159.1503
962.000000	58.431	-158.6905
975.000000	58.485	-158.2129
988.000000	58.542	-157.7583
1000.000000	58.596	-157.3624
1015.000000	58.664	-156.9042
1030.000000	58.731	-156.4853
1044.000000	58.794	-156.1270
1060.000000	58.864	-155.7533
1075.000000	58.928	-155.4336
1090.000000	58.989	-155.1380
1106.000000	59.051	-154.8455
1120.000000	59.105	-154.6076
1138.000000	59.173	-154.3256
1150.000000	59.218	-154.1512
1172.000000	59.297	-153.8553
1180.000000	59.325	-153.7541
1206.000000	59.417	-153.4370
1220.000000	59.469	-153.2669
1241.000000	59.556	-153.0028
1250.000000	59.596	-152.8846
1265.000000	59.669	-152.6796
1280.000000	59.746	-152.4640
1315.000000	59.902	-151.9131
1320.000000	59.917	-151.8286
1340.000000	59.950	-151.4759
1360.000000	59.935	-151.1010
1380.000000	59.884	-150.7056
1400.000000	59.819	-150.2884
1430.000000	59.744	-149.6203
1450.000000	59.724	-149.1530
1475.000000	59.732	-148.5492
1500.000000	59.768	-147.9225
1525.000000	59.822	-147.2709
1550.000000	59.885	-146.5917
1575.000000	59.953	-145.8829
1600.000000	60.023	-145.1487
1625.000000	60.097	-144.3959
1650.000000	60.175	-143.6309
1675.000000	60.256	-142.8591
1700.000000	60.341	-142.0843
1725.000000	60.431	-141.3072
1750.000000	60.525	-140.5305
1775.000000	60.624	-139.7589
1800.000000	60.727	-138.9952
1825.000000	60.835	-138.2405
1850.000000	60.950	-137.4959
1875.000000	61.069	-136.7634
1900.000000	61.194	-136.0476
1925.000000	61.324	-135.3527
1950.000000	61.459	-134.6813
1975.000000	61.600	-134.0358
2000.000000	61.745	-133.4217
2030.000000	61.927	-132.7365
2060.000000	62.116	-132.1149
2090.000000	62.311	-131.5581
2120.000000	62.510	-131.0638
2140.000000	62.645	-130.7680
2180.000000	62.919	-130.2520
2200.000000	63.058	-130.0294
2240.000000	63.342	-129.6530
2270.000000	63.560	-129.4321
2300.000000	63.782	-129.2665
2330.000000	64.008	-129.1601
2360.000000	64.239	-129.1184
2400.000000	64.552	-129.1801
2430.000000	64.790	-129.3286
2470.000000	65.112	-129.6800
2500.000000	65.354	-130.0644
2540.000000	65.673	-130.7423
2580.000000	65.987	-131.6127
2620.000000	66.293	-132.6773
2650.000000	66.516	-133.6029
2690.000000	66.802	-135.0052
2720.000000	67.006	-136.1811
2760.000000	67.263	-137.9124
2800.000000	67.499	-139.8279
2850.000000	67.763	-142.4712
2900.000000	67.982	-145.3690
2950.000000	68.149	-148.4867
3000.000000	68.254	-151.7818
3040.000000	68.291	-154.5080
3070.000000	68.290	-156.5808
3110.000000	68.249	-159.3507
3150.000000	68.164	-162.0897
3200.000000	67.996	-165.4063
3250.000000	67.761	-168.5284
3300.000000	67.462	-171.3763
3350.000000	67.104	-173.8736
3400.000000	66.696	-175.9512
3450.000000	66.246	-177.5486
3500.000000	65.767	-178.6128
3550.000000	65.274	-179.1116
3600.000000	64.785	-179.0360
3650.000000	64.318	-178.3911
3700.000000	63.894	-177.2023
3750.000000	63.533	-175.5249
3820.000000	63.161	-172.5339
3870.000000	62.998	-170.1081
3950.000000	62.915	-166.1196
4000.000000	62.959	-163.7705
4060.000000	63.082	-161.2723
4120.000000	63.255	-159.2186
4180.000000	63.453	-157.6427
4250.000000	63.693	-156.3872
4310.000000	63.894	-155.7677
4370.000000	64.086	-155.5231
4440.000000	64.296	-155.6446
4500.000000	64.460	-156.0254
4550.000000	64.581	-156.4801
4620.000000	64.726	-157.2345
4680.000000	64.824	-157.9246
4750.000000	64.911	-158.7424
4820.000000	64.969	-159.5851
4870.000000	64.988	-160.2116
4940.000000	64.974	-161.0888
5000.000000	64.917	-161.7446
5080.000000	64.786	-162.2418
5150.000000	64.647	-162.1311
5220.000000	64.530	-161.4624
5300.000000	64.476	-160.2108
5380.000000	64.533	-158.8589
5450.000000	64.665	-157.9484
5520.000000	64.846	-157.4902
5600.000000	65.073	-157.5694
5700.000000	65.329	-158.4094
5800.000000	65.521	-159.7386
5900.000000	65.651	-161.2309
6000.000000	65.732	-162.6591
6080.000000	65.767	-163.6706
6150.000000	65.780	-164.4357
6220.000000	65.782	-165.0856
6300.000000	65.780	-165.6967
6400.000000	65.784	-166.2967
6500.000000	65.808	-166.7646
6600.000000	65.861	-167.1476
6700.000000	65.954	-167.4880
6800.000000	66.096	-167.8352
6900.000000	66.295	-168.2536
7000.000000	66.559	-168.8322
7100.000000	66.897	-169.7008
7200.000000	67.318	-171.0407
7300.000000	67.815	-173.0739
7400.000000	68.365	-176.0240
7500.000000	68.930	179.9349
7620.000000	69.548	173.5579
7750.000000	70.013	164.9552
7880.000000	70.140	155.1450
8000.000000	69.904	145.6948
8120.000000	69.337	136.4854
8250.000000	68.406	127.3086
8380.000000	67.225	119.2971
8500.000000	65.982	113.0677
8620.000000	64.639	107.9932
8750.000000	63.100	103.8236
8850.000000	61.866	101.5969
9000.000000	59.944	100.0157
9120.000000	58.358	100.4800
9250.000000	56.625	103.0341
9380.000000	54.948	108.0607
9500.000000	53.559	115.0450
9620.000000	52.462	123.9428
9750.000000	51.735	134.5724
9880.000000	51.511	144.5592
10000.000000	51.654	152.1443
10150.000000	52.096	159.0161
10300.000000	52.634	163.3151
10440.000000	53.111	165.5458
10600.000000	53.559	166.6016
10750.000000	53.860	166.6299
10900.000000	54.042	166.1515
11060.000000	54.120	165.4792
11200.000000	54.116	164.9731
11380.000000	54.050	164.5175
11500.000000	53.985	164.2792
11720.000000	53.839	163.8033
11800.000000	53.775	163.5946
12060.000000	53.494	162.8135
12200.000000	53.281	162.4026
12410.000000	52.868	161.9716
12500.000000	52.656	161.9061
12650.000000	52.257	162.0217
12800.000000	51.797	162.4760
13150.000000	50.472	165.1103
13200.000000	50.253	165.6823
13400.000000	49.328	168.5050
13600.000000	48.384	172.2718
13800.000000	47.530	177.0392
14000.000000	46.844	-177.2306
14300.000000	46.241	-166.1118
14500.000000	46.352	-156.2144
14750.000000	47.428	-143.2702
15000.000000	49.246	-136.0965
15250.000000	51.069	-136.7188
15500.000000	52.470	-143.0847
15750.000000	53.080	-153.0095
16000.000000	52.704	-163.0095
16250.000000	51.606	-170.5123
16500.000000	50.227	-174.7191
16750.000000	48.886	-175.9726
17000.000000	47.704	-174.9137
17250.000000	46.702	-172.0196
17500.000000	45.883	-167.8020
17750.000000	45.248	-162.7666
18000.000000	44.798	-157.3049
18250.000000	44.520	-151.6852
18500.000000	44.385	-146.0951
18750.000000	44.358	-140.6890
19000.000000	44.407	-135.6609
19250.000000	44.487	-131.2669
19500.000000	44.540	-127.7707
19750.000000	44.539	-125.3854
20000.000000	44.515	-124.2226
