* Measurement data measured by REW V5.31.3
* Source: Microphone (4- USB Audio Device), MICROPHONE (Master Volume), R, volume: 0.250
* Format: 256k Log Swept Sine, 1 sweep at -12.0 dBFS with no timing reference
* Dated: 04-Sep-2024 09:22:15
* REW Settings:
*  C-weighting compensation: Off
*  Target level: 75.0 dB
* Note: 
* Measurement: KZ Carol R
* Smoothing: 1/12 octave
* Frequency Step: 1/48 octave
* Start Frequency: 20.300 Hz
*
* Freq(Hz)	SPL(dB)	Phase(degrees)
20.299999	85.088	21.4447
20.600000	85.207	19.6438
20.900000	85.362	17.4215
21.200001	85.535	15.1004
21.400000	85.657	13.5645
21.799999	85.907	10.5781
22.000000	86.033	9.1340
22.400000	86.283	6.3381
22.700001	86.462	4.3092
23.000000	86.633	2.3228
23.299999	86.793	0.3625
23.600000	86.942	-1.5879
24.000000	87.127	-4.1965
24.299999	87.256	-6.1697
24.700001	87.419	-8.8265
25.000000	87.537	-10.8344
25.400000	87.692	-13.5235
25.799999	87.845	-16.2202
26.200001	87.997	-18.9238
26.500000	88.107	-20.9551
26.900000	88.246	-23.6619
27.200001	88.343	-25.6820
27.600000	88.463	-28.3488
28.000000	88.577	-30.9791
28.500000	88.717	-34.2327
29.000000	88.860	-37.4903
29.500000	89.007	-40.7797
30.000000	89.150	-44.0768
30.400000	89.261	-46.6791
30.700001	89.343	-48.5908
31.100000	89.452	-51.0785
31.500000	89.562	-53.5069
32.000000	89.701	-56.5003
32.500000	89.834	-59.4940
33.000000	89.958	-62.5081
33.500000	90.071	-65.5254
34.000000	90.176	-68.5108
34.500000	90.280	-71.4377
35.000000	90.387	-74.3044
35.500000	90.495	-77.1319
36.000000	90.602	-79.9483
36.500000	90.703	-82.7702
37.000000	90.798	-85.5957
37.500000	90.889	-88.4123
38.200001	91.016	-92.3249
38.700001	91.106	-95.0988
39.500000	91.244	-99.5048
40.000000	91.323	-102.2323
40.599998	91.411	-105.4739
41.200001	91.494	-108.6884
41.799999	91.572	-111.8859
42.500000	91.655	-115.6007
43.099998	91.720	-118.7777
43.700001	91.786	-121.9601
44.400002	91.869	-125.6823
45.000000	91.946	-128.8548
45.500000	92.013	-131.4575
46.200001	92.107	-135.0166
46.799999	92.183	-138.0141
47.500000	92.264	-141.5175
48.200001	92.330	-145.0616
48.700001	92.370	-147.5939
49.400002	92.421	-151.0815
50.000000	92.466	-153.9923
50.799999	92.528	-157.7927
51.500000	92.578	-161.0908
52.200001	92.621	-164.3844
53.000000	92.666	-168.1498
53.799999	92.714	-171.9415
54.500000	92.761	-175.3015
55.200001	92.809	-178.6866
56.000000	92.861	177.4718
57.000000	92.916	172.7917
58.000000	92.963	168.2187
59.000000	93.010	163.6412
60.000000	93.062	159.0343
60.799999	93.104	155.3571
61.500000	93.136	152.1616
62.200001	93.162	149.0020
63.000000	93.188	145.4548
64.000000	93.225	141.1238
65.000000	93.266	136.8656
66.000000	93.308	132.6045
67.000000	93.353	128.2881
68.000000	93.399	123.9321
69.000000	93.441	119.5917
70.000000	93.473	115.3044
71.000000	93.499	111.0801
72.000000	93.522	106.9174
73.000000	93.547	102.7942
74.000000	93.575	98.6590
75.000000	93.600	94.4862
76.199997	93.626	89.4964
77.500000	93.644	84.2070
78.800003	93.655	78.9809
80.000000	93.667	74.0872
81.199997	93.686	69.1203
82.500000	93.709	63.7585
83.800003	93.728	58.4430
85.000000	93.744	53.5693
86.199997	93.758	48.7826
87.500000	93.771	43.7256
88.500000	93.782	39.8800
90.000000	93.799	34.1163
91.199997	93.809	29.5114
92.500000	93.814	24.5284
93.800003	93.812	19.5458
95.000000	93.801	14.9575
96.199997	93.779	10.3808
97.500000	93.748	5.4186
98.800003	93.726	0.4349
100.000000	93.720	-4.1830
101.500000	93.727	-9.9373
103.000000	93.733	-15.6226
104.400002	93.729	-20.8871
106.000000	93.719	-26.9073
107.500000	93.704	-32.5425
109.000000	93.687	-38.1466
110.599998	93.670	-44.1033
112.000000	93.654	-49.2966
113.800003	93.627	-55.8885
115.000000	93.604	-60.2067
117.199997	93.555	-68.1074
118.000000	93.534	-71.0117
120.599998	93.456	-80.5499
122.000000	93.411	-85.7158
124.099998	93.348	-93.3683
125.000000	93.321	-96.6002
126.500000	93.276	-101.9669
128.000000	93.225	-107.3593
131.500000	93.075	-120.0636
132.000000	93.051	-121.8787
134.000000	92.948	-129.1381
136.000000	92.843	-136.3647
138.000000	92.726	-143.5171
140.000000	92.589	-150.6140
143.000000	92.357	-161.1643
145.000000	92.191	-168.1423
147.500000	91.959	-176.7877
150.000000	91.697	174.7513
152.500000	91.404	166.4926
155.000000	91.085	158.3212
157.500000	90.741	150.3019
160.000000	90.368	142.6270
162.500000	89.966	135.3687
165.000000	89.547	128.5327
167.500000	89.134	122.1810
170.000000	88.742	116.3594
172.500000	88.387	111.1005
175.000000	88.093	106.3674
177.500000	87.882	101.9911
180.000000	87.773	97.6852
182.500000	87.773	93.2017
185.000000	87.868	88.4619
187.500000	88.039	83.4463
190.000000	88.269	78.1207
192.500000	88.532	72.4598
195.000000	88.802	66.4336
197.500000	89.067	60.0588
200.000000	89.320	53.4030
203.000000	89.604	45.0909
206.000000	89.859	36.4733
209.000000	90.076	27.6722
212.000000	90.255	18.7502
214.000000	90.359	12.7321
218.000000	90.534	0.5754
220.000000	90.604	-5.5100
224.000000	90.709	-17.6558
227.000000	90.763	-26.7529
230.000000	90.802	-35.8268
233.000000	90.828	-44.8159
236.000000	90.834	-53.6978
240.000000	90.802	-65.4551
243.000000	90.755	-74.2578
247.000000	90.680	-85.9306
250.000000	90.617	-94.5707
254.000000	90.515	-105.9009
258.000000	90.387	-117.0867
262.000000	90.235	-128.1973
265.000000	90.112	-136.4348
269.000000	89.937	-147.2073
272.000000	89.797	-155.1165
276.000000	89.607	-165.4722
280.000000	89.427	-175.5930
285.000000	89.225	172.1091
290.000000	89.062	160.1583
295.000000	88.961	148.4969
300.000000	88.941	136.9265
304.000000	88.978	127.5588
307.000000	89.022	120.4075
311.000000	89.077	110.7009
315.000000	89.116	100.8519
320.000000	89.146	88.4227
325.000000	89.171	75.9071
330.000000	89.196	63.3912
335.000000	89.215	50.9844
340.000000	89.230	38.6976
345.000000	89.240	26.4225
350.000000	89.250	14.0759
355.000000	89.269	1.7153
360.000000	89.298	-10.5741
365.000000	89.333	-22.7996
370.000000	89.371	-35.0342
375.000000	89.407	-47.2894
382.000000	89.445	-64.4092
387.000000	89.463	-76.6001
395.000000	89.497	-95.8917
400.000000	89.536	-107.7622
406.000000	89.599	-121.7859
412.000000	89.655	-135.5884
418.000000	89.692	-149.2406
425.000000	89.716	-165.0562
431.000000	89.735	-178.5414
437.000000	89.763	168.1799
444.000000	89.798	153.1255
450.000000	89.813	140.5692
455.000000	89.815	130.2573
462.000000	89.807	115.9124
468.000000	89.797	103.6671
475.000000	89.781	89.4777
482.000000	89.758	75.4326
487.000000	89.737	65.4680
494.000000	89.710	51.5933
500.000000	89.693	39.7751
508.000000	89.676	24.2181
515.000000	89.659	10.8328
522.000000	89.634	-2.4022
530.000000	89.594	-17.4423
538.000000	89.552	-32.3698
545.000000	89.517	-45.2322
552.000000	89.483	-57.8823
560.000000	89.437	-72.1768
570.000000	89.365	-89.9930
580.000000	89.289	-107.7773
590.000000	89.221	-125.4133
600.000000	89.161	-142.8480
608.000000	89.115	-156.7104
615.000000	89.074	-168.7754
622.000000	89.033	179.2454
630.000000	88.988	165.6478
640.000000	88.933	148.7461
650.000000	88.873	131.9874
660.000000	88.808	115.4207
670.000000	88.749	99.0251
680.000000	88.698	82.7533
690.000000	88.653	66.6345
700.000000	88.607	50.6892
710.000000	88.551	34.8083
720.000000	88.490	18.9778
730.000000	88.433	3.2742
740.000000	88.387	-12.2495
750.000000	88.347	-27.5815
762.000000	88.296	-45.7612
775.000000	88.246	-65.3279
788.000000	88.209	-84.8235
800.000000	88.180	-102.6533
812.000000	88.147	-120.2310
825.000000	88.120	-138.9668
838.000000	88.110	-157.4800
850.000000	88.111	-174.4829
862.000000	88.114	168.5493
875.000000	88.115	150.2649
885.000000	88.113	136.3398
900.000000	88.117	115.7261
912.000000	88.134	99.4551
925.000000	88.165	81.9983
938.000000	88.202	64.6873
950.000000	88.243	48.8665
962.000000	88.286	33.2200
975.000000	88.326	16.3633
988.000000	88.360	-0.4958
1000.000000	88.388	-16.0200
1015.000000	88.429	-35.3447
1030.000000	88.479	-54.6074
1044.000000	88.533	-72.4509
1060.000000	88.605	-92.5684
1075.000000	88.679	-111.1724
1090.000000	88.752	-129.5664
1106.000000	88.824	-149.0413
1120.000000	88.889	-166.0098
1138.000000	88.978	172.2930
1150.000000	89.037	157.9985
1172.000000	89.134	132.3315
1180.000000	89.167	123.1318
1206.000000	89.279	93.3979
1220.000000	89.342	77.4082
1241.000000	89.428	53.4597
1250.000000	89.461	43.2114
1265.000000	89.511	26.1484
1280.000000	89.558	9.1206
1315.000000	89.654	-30.2783
1320.000000	89.667	-35.8501
1340.000000	89.715	-57.9294
1360.000000	89.764	-79.6260
1380.000000	89.811	-100.9324
1400.000000	89.860	-121.8574
1430.000000	89.953	-152.6770
1450.000000	90.028	-172.9182
1475.000000	90.108	162.0059
1500.000000	90.172	136.8770
1525.000000	90.231	111.7759
1550.000000	90.295	87.2200
1575.000000	90.375	63.3689
1600.000000	90.469	40.0806
1625.000000	90.569	17.1970
1650.000000	90.661	-5.3472
1675.000000	90.755	-27.4370
1700.000000	90.865	-48.9246
1725.000000	90.981	-69.8132
1750.000000	91.093	-90.2830
1775.000000	91.201	-110.4380
1800.000000	91.303	-130.3735
1825.000000	91.406	-150.1602
1850.000000	91.517	-169.6880
1875.000000	91.635	171.1265
1900.000000	91.761	152.2930
1925.000000	91.894	133.8694
1950.000000	92.027	115.7830
1975.000000	92.158	97.8618
2000.000000	92.291	80.0657
2030.000000	92.452	59.0244
2060.000000	92.619	38.4509
2090.000000	92.805	18.3931
2120.000000	93.014	-1.1719
2140.000000	93.161	-13.9653
2180.000000	93.455	-39.0093
2200.000000	93.599	-51.3184
2240.000000	93.875	-75.6318
2270.000000	94.076	-93.7107
2300.000000	94.286	-111.6223
2330.000000	94.497	-129.2944
2360.000000	94.703	-146.7891
2400.000000	94.967	-169.8916
2430.000000	95.159	172.9819
2470.000000	95.407	150.5437
2500.000000	95.584	134.0430
2540.000000	95.802	112.4604
2580.000000	96.007	91.3813
2620.000000	96.204	70.8218
2650.000000	96.341	55.6614
2690.000000	96.498	35.6472
2720.000000	96.600	20.7815
2760.000000	96.720	1.2700
2800.000000	96.822	-17.7021
2850.000000	96.914	-40.6196
2900.000000	96.957	-62.8723
2950.000000	96.976	-84.3237
3000.000000	97.005	-104.5432
3040.000000	97.036	-119.8787
3070.000000	97.059	-130.9866
3110.000000	97.083	-145.3435
3150.000000	97.104	-159.2170
3200.000000	97.126	-175.9534
3250.000000	97.140	167.8652
3300.000000	97.134	152.0710
3350.000000	97.096	136.4636
3400.000000	97.036	121.1445
3450.000000	96.967	106.5029
3500.000000	96.896	92.8596
3550.000000	96.825	80.2373
3600.000000	96.754	68.4766
3650.000000	96.682	57.4585
3700.000000	96.605	47.1875
3750.000000	96.527	37.7871
3820.000000	96.431	26.2627
3870.000000	96.378	19.1284
3950.000000	96.308	9.1104
4000.000000	96.275	3.4258
4060.000000	96.246	-2.9565
4120.000000	96.229	-8.8130
4180.000000	96.221	-14.0210
4250.000000	96.225	-19.1982
4310.000000	96.252	-22.8398
4370.000000	96.299	-25.8096
4440.000000	96.364	-28.5791
4500.000000	96.432	-30.2627
4550.000000	96.507	-31.0190
4620.000000	96.647	-31.1118
4680.000000	96.791	-30.5962
4750.000000	96.979	-29.6523
4820.000000	97.188	-28.3960
4870.000000	97.351	-27.2432
4940.000000	97.594	-25.1865
5000.000000	97.808	-22.9565
5080.000000	98.089	-19.3823
5150.000000	98.322	-16.0962
5220.000000	98.518	-13.2441
5300.000000	98.671	-10.6948
5380.000000	98.727	-8.4219
5450.000000	98.675	-6.1885
5520.000000	98.522	-3.4268
5600.000000	98.226	0.7378
5700.000000	97.685	8.2412
5800.000000	96.967	18.8467
5900.000000	96.090	32.6768
6000.000000	95.102	49.8865
6080.000000	94.263	65.9580
6150.000000	93.516	81.5796
6220.000000	92.782	98.6506
6300.000000	91.996	120.0000
6400.000000	91.141	149.4104
6500.000000	90.480	-178.1313
6600.000000	90.058	-142.6694
6700.000000	89.867	-105.4697
6800.000000	89.857	-68.3789
6900.000000	89.979	-32.2234
7000.000000	90.187	2.8772
7100.000000	90.448	37.6277
7200.000000	90.748	73.4004
7300.000000	91.080	110.9133
7400.000000	91.436	149.8877
7500.000000	91.808	-169.9302
7620.000000	92.288	-119.5730
7750.000000	92.852	-62.3564
7880.000000	93.455	-4.6787
8000.000000	94.038	47.5913
8120.000000	94.629	99.4153
8250.000000	95.233	155.7373
8380.000000	95.711	-150.0464
8500.000000	95.957	-101.6860
8620.000000	95.965	-52.9556
8750.000000	95.676	1.2183
8850.000000	95.256	45.6667
9000.000000	94.372	119.2456
9120.000000	93.514	-178.5420
9250.000000	92.526	-110.0681
9380.000000	91.562	-35.1421
9500.000000	90.749	50.6821
9620.000000	90.038	139.9895
9750.000000	89.390	-136.3145
9880.000000	88.850	-53.3594
10000.000000	88.402	26.1201
10150.000000	87.830	124.1880
10300.000000	87.196	-143.8560
10440.000000	86.586	-58.3138
10600.000000	85.972	65.3167
10750.000000	85.555	-142.7729
10900.000000	85.327	-38.3448
11060.000000	85.308	75.4268
11200.000000	85.480	-165.0723
11380.000000	85.932	11.4661
11500.000000	86.353	97.7935
11720.000000	87.334	-138.5527
11800.000000	87.748	-15.2505
12060.000000	89.174	170.1409
12200.000000	89.857	179.6958
12410.000000	90.432	-174.6092
12500.000000	90.410	-150.5269
12650.000000	89.976	-112.8901
12800.000000	89.268	-80.3647
13150.000000	88.717	45.4477
13200.000000	88.711	70.7868
13400.000000	88.382	152.2054
13600.000000	87.463	176.6304
13800.000000	86.163	-169.1290
14000.000000	84.740	-162.9962
14300.000000	82.802	-91.0271
14500.000000	81.806	8.9619
14750.000000	80.931	52.6212
15000.000000	80.425	120.2440
15250.000000	80.249	-117.1534
15500.000000	80.356	-65.4855
15750.000000	80.644	-2.7157
16000.000000	80.910	-11.9924
16250.000000	80.945	-22.6022
16500.000000	80.608	-17.3861
16750.000000	79.868	-16.8456
17000.000000	78.802	-101.7874
17250.000000	77.579	146.8220
17500.000000	76.385	148.4348
17750.000000	75.341	167.8497
18000.000000	74.470	-154.6421
18250.000000	73.703	-136.1807
18500.000000	72.907	-141.5572
18750.000000	71.938	140.6416
19000.000000	70.747	64.9471
19250.000000	69.489	45.6134
19500.000000	68.504	40.9439
19750.000000	68.033	36.4172
20000.000000	67.933	29.4498
