* Measurement data measured by REW V5.31.3
* Source: Microphone (6- USB Sound Device        ), MICROPHONE (Master Volume), L, volume: 0.700
* Format: 256k Log Swept Sine, 1 sweep at -12.0 dBFS with no timing reference
* Dated: 22-Mar-2025 16:31:15
* REW Settings:
*  C-weighting compensation: Off
*  Target level: 75.0 dB
* Note: 
* Measurement: ME ANC R
* Smoothing: 1/12 octave
* Frequency Step: 1/48 octave
* Start Frequency: 20.300 Hz
*
* Freq(Hz)	SPL(dB)	Phase(degrees)
20.299999	77.428	128.7671
20.600000	76.929	127.2173
20.900000	76.185	125.6585
21.200001	75.310	124.6062
21.400000	74.736	124.2390
21.799999	73.840	123.8832
22.000000	73.586	123.6010
22.400000	73.448	122.4145
22.700001	73.554	121.1338
23.000000	73.729	119.8834
23.299999	73.911	118.9218
23.600000	74.070	118.3149
24.000000	74.215	117.8778
24.299999	74.258	117.6426
24.700001	74.221	117.2958
25.000000	74.133	117.0092
25.400000	73.968	116.6420
25.799999	73.784	116.3083
26.200001	73.578	116.0191
26.500000	73.390	115.8983
26.900000	73.074	116.0370
27.200001	72.797	116.4497
27.600000	72.412	117.3240
28.000000	72.055	118.1964
28.500000	71.651	118.6941
29.000000	71.248	118.6324
29.500000	70.868	118.8511
30.000000	70.641	119.7206
30.400000	70.608	120.4133
30.700001	70.634	120.5967
31.100000	70.665	120.2581
31.500000	70.636	119.4070
32.000000	70.519	118.0746
32.500000	70.371	116.8263
33.000000	70.234	115.9299
33.500000	70.126	115.6872
34.000000	70.089	116.2112
34.500000	70.163	117.0519
35.000000	70.298	117.5416
35.500000	70.387	117.6000
36.000000	70.383	117.7957
36.500000	70.339	118.6088
37.000000	70.323	119.8452
37.500000	70.321	120.8928
38.200001	70.235	121.3974
38.700001	70.112	121.0209
39.500000	69.910	118.9682
40.000000	69.762	117.0820
40.599998	69.517	115.4556
41.200001	69.280	115.6063
41.799999	69.173	117.0658
42.500000	69.138	118.4162
43.099998	69.032	118.7788
43.700001	68.902	119.0267
44.400002	68.937	119.3168
45.000000	69.117	119.0461
45.500000	69.239	118.4942
46.200001	69.237	117.9880
46.799999	69.133	118.1210
47.500000	69.037	118.3043
48.200001	69.004	117.8304
48.700001	68.991	117.3004
49.400002	68.963	116.9741
50.000000	68.932	117.2871
50.799999	68.871	117.9862
51.500000	68.793	118.1961
52.200001	68.717	117.7662
53.000000	68.650	116.7180
53.799999	68.576	115.6409
54.500000	68.490	115.0872
55.200001	68.410	114.9806
56.000000	68.373	115.1328
57.000000	68.384	115.1967
58.000000	68.342	114.9944
59.000000	68.209	114.7429
60.000000	68.087	114.4776
60.799999	68.056	114.1643
61.500000	68.075	113.8293
62.200001	68.116	113.5251
63.000000	68.163	113.3404
64.000000	68.196	113.4651
65.000000	68.192	113.7447
66.000000	68.156	113.6794
67.000000	68.109	113.0033
68.000000	68.059	111.9312
69.000000	67.998	110.9563
70.000000	67.929	110.2788
71.000000	67.853	109.8401
72.000000	67.780	109.6315
73.000000	67.728	109.5891
74.000000	67.699	109.4976
75.000000	67.679	109.1851
76.199997	67.654	108.6203
77.500000	67.647	108.0001
78.800003	67.672	107.2771
80.000000	67.704	106.4965
81.199997	67.731	105.7190
82.500000	67.732	104.9308
83.800003	67.700	104.2532
85.000000	67.666	103.7421
86.199997	67.643	103.2870
87.500000	67.628	102.7629
88.500000	67.616	102.3442
90.000000	67.582	101.8072
91.199997	67.530	101.4803
92.500000	67.458	101.2228
93.800003	67.380	101.1537
95.000000	67.299	101.2547
96.199997	67.211	101.3029
97.500000	67.118	101.0659
98.800003	67.053	100.4630
100.000000	67.037	99.6882
101.500000	67.066	98.7402
103.000000	67.088	98.0197
104.400002	67.060	97.4544
106.000000	67.000	96.7122
107.500000	66.964	95.9611
109.000000	66.955	95.2814
110.599998	66.953	94.6597
112.000000	66.949	94.1692
113.800003	66.935	93.5487
115.000000	66.924	93.1358
117.199997	66.892	92.3932
118.000000	66.874	92.0891
120.599998	66.803	90.9992
122.000000	66.751	90.4000
124.099998	66.664	89.4334
125.000000	66.629	89.0257
126.500000	66.579	88.3976
128.000000	66.541	87.8585
131.500000	66.459	86.9752
132.000000	66.444	86.8669
134.000000	66.369	86.4187
136.000000	66.282	85.8493
138.000000	66.200	85.1269
140.000000	66.128	84.3477
143.000000	66.050	83.2521
145.000000	66.017	82.6239
147.500000	65.995	81.8884
150.000000	65.989	81.0849
152.500000	65.972	80.1077
155.000000	65.920	78.9708
157.500000	65.830	77.7973
160.000000	65.723	76.7794
162.500000	65.626	76.0257
165.000000	65.556	75.4417
167.500000	65.513	74.9513
170.000000	65.477	74.5259
172.500000	65.427	74.0872
175.000000	65.362	73.5357
177.500000	65.283	72.7950
180.000000	65.195	71.9153
182.500000	65.101	71.0720
185.000000	65.009	70.4296
187.500000	64.923	70.0620
190.000000	64.839	69.9201
192.500000	64.756	69.8874
195.000000	64.673	69.8389
197.500000	64.601	69.6750
200.000000	64.545	69.3467
203.000000	64.494	68.7887
206.000000	64.450	68.2153
209.000000	64.411	67.8678
212.000000	64.394	67.9254
214.000000	64.407	68.1664
218.000000	64.490	68.8415
220.000000	64.547	69.1570
224.000000	64.659	69.5746
227.000000	64.734	69.6556
230.000000	64.807	69.5509
233.000000	64.886	69.2923
236.000000	64.980	68.9512
240.000000	65.141	68.5286
243.000000	65.291	68.2626
247.000000	65.529	67.8575
250.000000	65.735	67.3392
254.000000	66.040	66.1144
258.000000	66.354	64.2128
262.000000	66.639	61.7118
265.000000	66.813	59.5104
269.000000	66.967	56.3364
272.000000	67.015	53.9773
276.000000	66.987	51.0970
280.000000	66.875	48.6539
285.000000	66.680	46.1957
290.000000	66.484	44.1885
295.000000	66.297	42.4838
300.000000	66.126	41.1598
304.000000	66.022	40.4229
307.000000	65.977	40.0020
311.000000	65.964	39.4812
315.000000	65.995	38.8668
320.000000	66.057	37.8539
325.000000	66.104	36.5983
330.000000	66.118	35.1558
335.000000	66.108	33.5271
340.000000	66.093	31.7411
345.000000	66.081	29.8631
350.000000	66.074	27.9233
355.000000	66.068	25.9683
360.000000	66.060	24.0763
365.000000	66.043	22.3337
370.000000	66.009	20.8187
375.000000	65.953	19.5475
382.000000	65.845	17.9991
387.000000	65.759	16.8838
395.000000	65.634	14.9926
400.000000	65.570	13.7895
406.000000	65.508	12.3450
412.000000	65.453	10.9124
418.000000	65.396	9.5688
425.000000	65.319	8.2181
431.000000	65.240	7.2031
437.000000	65.152	6.2065
444.000000	65.054	4.9917
450.000000	64.992	3.8623
455.000000	64.960	2.8532
462.000000	64.936	1.3897
468.000000	64.924	0.1621
475.000000	64.902	-1.1430
482.000000	64.862	-2.2583
487.000000	64.824	-2.9350
494.000000	64.761	-3.7665
500.000000	64.709	-4.4253
508.000000	64.654	-5.2805
515.000000	64.632	-6.0752
522.000000	64.646	-6.9750
530.000000	64.708	-8.1712
538.000000	64.805	-9.4821
545.000000	64.902	-10.6253
552.000000	64.996	-11.6879
560.000000	65.092	-12.7863
570.000000	65.190	-14.0909
580.000000	65.279	-15.4513
590.000000	65.376	-16.9457
600.000000	65.489	-18.5859
608.000000	65.592	-19.9719
615.000000	65.684	-21.2397
622.000000	65.769	-22.5568
630.000000	65.843	-24.0870
640.000000	65.895	-25.9613
650.000000	65.913	-27.7300
660.000000	65.923	-29.4070
670.000000	65.947	-31.1394
680.000000	66.000	-33.0876
690.000000	66.081	-35.2173
700.000000	66.175	-37.3588
710.000000	66.258	-39.3639
720.000000	66.319	-41.1911
730.000000	66.358	-42.9122
740.000000	66.384	-44.6402
750.000000	66.411	-46.4410
762.000000	66.455	-48.7180
775.000000	66.508	-51.2569
788.000000	66.546	-53.7610
800.000000	66.561	-55.9851
812.000000	66.558	-58.0668
825.000000	66.536	-60.1699
838.000000	66.510	-62.2478
850.000000	66.498	-64.2371
862.000000	66.502	-66.3124
875.000000	66.519	-68.5998
885.000000	66.530	-70.3090
900.000000	66.522	-72.6903
912.000000	66.492	-74.4387
925.000000	66.447	-76.2420
938.000000	66.402	-78.0118
950.000000	66.376	-79.6372
962.000000	66.370	-81.2673
975.000000	66.380	-83.0616
988.000000	66.393	-84.8720
1000.000000	66.404	-86.4707
1015.000000	66.409	-88.2454
1030.000000	66.399	-89.7547
1044.000000	66.380	-90.9899
1060.000000	66.360	-92.3390
1075.000000	66.359	-93.6273
1090.000000	66.381	-94.9248
1106.000000	66.432	-96.2972
1120.000000	66.491	-97.5014
1138.000000	66.569	-99.0650
1150.000000	66.619	-100.1066
1172.000000	66.712	-101.9958
1180.000000	66.747	-102.6736
1206.000000	66.873	-104.8643
1220.000000	66.952	-106.0434
1241.000000	67.092	-107.8568
1250.000000	67.160	-108.6642
1265.000000	67.285	-110.0492
1280.000000	67.422	-111.4589
1315.000000	67.740	-114.6152
1320.000000	67.779	-115.0386
1340.000000	67.910	-116.6629
1360.000000	68.001	-118.1934
1380.000000	68.066	-119.6926
1400.000000	68.133	-121.2510
1430.000000	68.281	-123.8180
1450.000000	68.424	-125.6634
1475.000000	68.643	-128.0469
1500.000000	68.890	-130.4917
1525.000000	69.147	-132.9725
1550.000000	69.398	-135.4731
1575.000000	69.638	-138.0152
1600.000000	69.865	-140.6412
1625.000000	70.069	-143.3892
1650.000000	70.244	-146.2378
1675.000000	70.396	-149.0743
1700.000000	70.526	-151.7913
1725.000000	70.626	-154.3942
1750.000000	70.696	-156.9350
1775.000000	70.746	-159.3947
1800.000000	70.787	-161.7270
1825.000000	70.831	-163.9162
1850.000000	70.885	-165.9462
1875.000000	70.952	-167.8233
1900.000000	71.026	-169.5821
1925.000000	71.102	-171.2567
1950.000000	71.174	-172.8716
1975.000000	71.241	-174.4400
2000.000000	71.310	-175.9669
2030.000000	71.400	-177.7601
2060.000000	71.496	-179.5332
2090.000000	71.593	178.7046
2120.000000	71.691	176.9504
2140.000000	71.756	175.7998
2180.000000	71.890	173.5834
2200.000000	71.962	172.5029
2240.000000	72.123	170.3018
2270.000000	72.259	168.5426
2300.000000	72.406	166.6564
2330.000000	72.563	164.6443
2360.000000	72.724	162.5417
2400.000000	72.927	159.6503
2430.000000	73.062	157.4425
2470.000000	73.216	154.4714
2500.000000	73.306	152.2417
2540.000000	73.391	149.3180
2580.000000	73.440	146.4705
2620.000000	73.455	143.6678
2650.000000	73.445	141.5602
2690.000000	73.406	138.7045
2720.000000	73.356	136.5367
2760.000000	73.260	133.6735
2800.000000	73.120	130.9439
2850.000000	72.879	127.8869
2900.000000	72.587	125.2834
2950.000000	72.268	123.1248
3000.000000	71.927	121.4521
3040.000000	71.633	120.4959
3070.000000	71.404	120.0226
3110.000000	71.092	119.7244
3150.000000	70.781	119.8033
3200.000000	70.406	120.4134
3250.000000	70.067	121.4517
3300.000000	69.771	122.7370
3350.000000	69.511	124.1971
3400.000000	69.272	125.8631
3450.000000	69.048	127.7843
3500.000000	68.843	129.9813
3550.000000	68.668	132.4370
3600.000000	68.529	135.0817
3650.000000	68.429	137.8168
3700.000000	68.361	140.5761
3750.000000	68.317	143.3934
3820.000000	68.306	147.7257
3870.000000	68.378	151.1595
3950.000000	68.661	156.4689
4000.000000	68.884	159.2534
4060.000000	69.123	162.1295
4120.000000	69.313	164.7998
4180.000000	69.472	167.4305
4250.000000	69.647	170.4284
4310.000000	69.804	172.7950
4370.000000	69.970	174.8225
4440.000000	70.158	176.7265
4500.000000	70.292	178.0615
4550.000000	70.370	179.0463
4620.000000	70.410	-179.6169
4680.000000	70.373	-178.3353
4750.000000	70.250	-176.4583
4820.000000	70.058	-174.0068
4870.000000	69.895	-171.8679
4940.000000	69.656	-168.3394
5000.000000	69.468	-164.8674
5080.000000	69.277	-159.7939
5150.000000	69.175	-155.2376
5220.000000	69.117	-150.8970
5300.000000	69.061	-146.4436
5380.000000	68.958	-142.6047
5450.000000	68.782	-139.5735
5520.000000	68.504	-136.4837
5600.000000	68.082	-132.4380
5700.000000	67.476	-126.3140
5800.000000	66.861	-119.2843
5900.000000	66.247	-111.7579
6000.000000	65.608	-103.8357
6080.000000	65.061	-97.1118
6150.000000	64.552	-90.8639
6220.000000	64.017	-84.2369
6300.000000	63.381	-76.1797
6400.000000	62.566	-65.3731
6500.000000	61.743	-53.7388
6600.000000	60.928	-41.2720
6700.000000	60.135	-27.9746
6800.000000	59.377	-13.7961
6900.000000	58.669	1.4059
7000.000000	58.045	17.7636
7100.000000	57.553	35.1742
7200.000000	57.231	53.2784
7300.000000	57.093	71.6901
7400.000000	57.136	90.1264
7500.000000	57.354	108.4259
7620.000000	57.831	129.9113
7750.000000	58.532	151.8011
7880.000000	59.278	171.2746
8000.000000	59.872	-173.3779
8120.000000	60.259	-160.4971
8250.000000	60.330	-148.5864
8380.000000	59.966	-137.2594
8500.000000	59.265	-125.4941
8620.000000	58.330	-110.9376
8750.000000	57.239	-91.2671
8850.000000	56.455	-73.5625
9000.000000	55.513	-43.0810
9120.000000	55.090	-14.7351
9250.000000	55.119	18.6038
9380.000000	55.649	49.2451
9500.000000	56.387	72.1897
9620.000000	57.133	90.5944
9750.000000	57.763	107.0941
9880.000000	58.101	121.7582
10000.000000	58.129	135.0389
10150.000000	57.828	152.7995
10300.000000	57.250	172.7057
10440.000000	56.540	-166.6802
10600.000000	55.602	-140.9164
10750.000000	54.655	-114.6838
10900.000000	53.699	-86.2466
11060.000000	52.742	-53.1304
11200.000000	52.029	-21.5160
11380.000000	51.389	22.8399
11500.000000	51.188	54.2905
11720.000000	51.344	113.2126
11800.000000	51.557	134.1365
12060.000000	52.644	-162.7056
12200.000000	53.341	-132.6682
12410.000000	54.302	-92.5885
12500.000000	54.631	-76.7269
12650.000000	55.028	-51.1958
12800.000000	55.218	-25.9658
13150.000000	54.908	35.8199
13200.000000	54.798	45.2888
13400.000000	54.299	85.9229
13600.000000	53.965	134.6528
13800.000000	54.173	-163.2146
14000.000000	55.048	-101.7219
14300.000000	56.904	-38.3171
14500.000000	57.936	-7.1592
14750.000000	58.599	26.8423
15000.000000	58.449	59.7482
15250.000000	57.568	95.2539
15500.000000	56.274	139.1350
15750.000000	55.242	-140.8397
16000.000000	55.152	-35.5687
16250.000000	55.872	23.5670
16500.000000	56.788	71.1680
16750.000000	57.461	113.3562
17000.000000	57.656	151.5117
17250.000000	57.255	-172.1755
17500.000000	56.226	-136.2173
17750.000000	54.575	-100.2725
18000.000000	52.335	-63.9182
18250.000000	49.618	-26.9143
18500.000000	46.850	8.3911
18750.000000	45.349	38.8770
19000.000000	46.105	74.9211
19250.000000	47.811	124.2493
19500.000000	49.303	178.1067
19750.000000	50.284	-142.2671
20000.000000	50.740	-123.1248
