* Measurement data measured by REW V5.31.3
* Source: Microphone (6- USB Sound Device        ), MICROPHONE (Master Volume), L, volume: 0.700
* Format: 256k Log Swept Sine, 1 sweep at -12.0 dBFS with no timing reference
* Dated: 22-Mar-2025 16:33:10
* REW Settings:
*  C-weighting compensation: Off
*  Target level: 75.0 dB
* Note: 
* Measurement: ME Old Studio L
* Smoothing: 1/12 octave
* Frequency Step: 1/48 octave
* Start Frequency: 20.300 Hz
*
* Freq(Hz)	SPL(dB)	Phase(degrees)
20.299999	72.410	174.0018
20.600000	72.869	166.5508
20.900000	73.016	158.4348
21.200001	72.626	151.4037
21.400000	72.033	147.9205
21.799999	70.107	145.9485
22.000000	68.901	148.7694
22.400000	66.781	163.0113
22.700001	66.131	174.0006
23.000000	66.138	177.7406
23.299999	66.212	174.4407
23.600000	66.026	166.9136
24.000000	65.328	155.4150
24.299999	64.635	149.3497
24.700001	64.018	148.3510
25.000000	64.163	152.1150
25.400000	65.034	157.3603
25.799999	65.917	158.7921
26.200001	66.276	156.9664
26.500000	66.134	154.7188
26.900000	65.498	152.0897
27.200001	64.836	151.2236
27.600000	64.008	152.1951
28.000000	63.555	155.1701
28.500000	63.638	159.5161
29.000000	64.140	162.4110
29.500000	64.722	162.9604
30.000000	65.184	161.2096
30.400000	65.386	158.7945
30.700001	65.422	156.9908
31.100000	65.325	155.4358
31.500000	65.116	155.6070
32.000000	64.812	158.5296
32.500000	64.539	163.2508
33.000000	64.248	167.8214
33.500000	63.863	171.1225
34.000000	63.446	172.9869
34.500000	63.190	173.5307
35.000000	63.212	173.0182
35.500000	63.423	172.0559
36.000000	63.636	171.3601
36.500000	63.738	171.2985
37.000000	63.730	171.7201
37.500000	63.684	172.1394
38.200001	63.691	171.9821
38.700001	63.775	171.4154
39.500000	63.930	170.8601
40.000000	63.978	171.2135
40.599998	64.010	172.1374
41.200001	64.089	172.7673
41.799999	64.243	172.4588
42.500000	64.459	171.3896
43.099998	64.606	170.9442
43.700001	64.681	171.5614
44.400002	64.669	173.4337
45.000000	64.593	175.3024
45.500000	64.502	176.5220
46.200001	64.356	177.3451
46.799999	64.252	177.4382
47.500000	64.259	177.2739
48.200001	64.473	176.7997
48.700001	64.715	176.1599
49.400002	65.061	175.0496
50.000000	65.291	174.2909
50.799999	65.465	173.9048
51.500000	65.505	174.0330
52.200001	65.483	174.3670
53.000000	65.463	174.7784
53.799999	65.500	175.1084
54.500000	65.571	175.4240
55.200001	65.663	175.8183
56.000000	65.793	176.1630
57.000000	65.978	176.1576
58.000000	66.177	175.8520
59.000000	66.351	175.6414
60.000000	66.487	175.7363
60.799999	66.597	175.8282
61.500000	66.700	175.7312
62.200001	66.803	175.4627
63.000000	66.915	175.0692
64.000000	67.046	174.6967
65.000000	67.180	174.4834
66.000000	67.305	174.2327
67.000000	67.417	173.9570
68.000000	67.551	173.6902
69.000000	67.701	173.3922
70.000000	67.838	173.0776
71.000000	67.950	172.6533
72.000000	68.050	171.9701
73.000000	68.162	170.9792
74.000000	68.293	169.7899
75.000000	68.429	168.6677
76.199997	68.581	167.6797
77.500000	68.720	166.9824
78.800003	68.838	166.4102
80.000000	68.940	165.7766
81.199997	69.048	164.9990
82.500000	69.204	164.0917
83.800003	69.405	163.1093
85.000000	69.597	162.0924
86.199997	69.781	160.8970
87.500000	69.972	159.3593
88.500000	70.113	158.0255
90.000000	70.306	155.8024
91.199997	70.440	153.9325
92.500000	70.568	152.0332
93.800003	70.682	150.4603
95.000000	70.780	149.3387
96.199997	70.871	148.4588
97.500000	70.952	147.6111
98.800003	71.010	146.7041
100.000000	71.040	145.7622
101.500000	71.048	144.4783
103.000000	71.025	143.1125
104.400002	70.990	141.7975
106.000000	70.965	140.2602
107.500000	70.964	138.7480
109.000000	70.984	137.1220
110.599998	71.019	135.2565
112.000000	71.060	133.5799
113.800003	71.124	131.4886
115.000000	71.165	130.1805
117.199997	71.221	127.9822
118.000000	71.233	127.2229
120.599998	71.229	124.7015
122.000000	71.205	123.2693
124.099998	71.163	121.1378
125.000000	71.148	120.2807
126.500000	71.128	118.9733
128.000000	71.109	117.8096
131.500000	71.019	115.3478
132.000000	71.001	114.9986
134.000000	70.918	113.5729
136.000000	70.838	112.0782
138.000000	70.769	110.5123
140.000000	70.711	108.9281
143.000000	70.648	106.6148
145.000000	70.619	105.0514
147.500000	70.614	102.9617
150.000000	70.637	100.8096
152.500000	70.664	98.7307
155.000000	70.668	96.6787
157.500000	70.646	94.5541
160.000000	70.607	92.3946
162.500000	70.564	90.3444
165.000000	70.516	88.4951
167.500000	70.461	86.8216
170.000000	70.396	85.2467
172.500000	70.319	83.7316
175.000000	70.230	82.2936
177.500000	70.131	80.9623
180.000000	70.024	79.6899
182.500000	69.911	78.3607
185.000000	69.787	76.9158
187.500000	69.647	75.3933
190.000000	69.491	73.8654
192.500000	69.323	72.3683
195.000000	69.164	70.9101
197.500000	69.027	69.5242
200.000000	68.916	68.2705
203.000000	68.804	67.0048
206.000000	68.704	65.9770
209.000000	68.616	65.1060
212.000000	68.549	64.2334
214.000000	68.521	63.5623
218.000000	68.507	61.9838
220.000000	68.521	61.1508
224.000000	68.578	59.5604
227.000000	68.616	58.4457
230.000000	68.629	57.3400
233.000000	68.615	56.1876
236.000000	68.590	54.9897
240.000000	68.579	53.4256
243.000000	68.599	52.3402
247.000000	68.660	50.9705
250.000000	68.721	49.9077
254.000000	68.804	48.2402
258.000000	68.867	46.1375
262.000000	68.893	43.5834
265.000000	68.881	41.4168
269.000000	68.809	38.3465
272.000000	68.703	36.0586
276.000000	68.495	33.2177
280.000000	68.229	30.7169
285.000000	67.859	28.1039
290.000000	67.489	26.1854
295.000000	67.162	25.1095
300.000000	66.929	24.6787
304.000000	66.822	24.4656
307.000000	66.777	24.2442
311.000000	66.743	23.8126
315.000000	66.715	23.2393
320.000000	66.672	22.3583
325.000000	66.626	21.2797
330.000000	66.582	19.9938
335.000000	66.536	18.5689
340.000000	66.481	17.1352
345.000000	66.415	15.7602
350.000000	66.331	14.4440
355.000000	66.228	13.1829
360.000000	66.117	11.9438
365.000000	66.008	10.6749
370.000000	65.900	9.3668
375.000000	65.786	8.0777
382.000000	65.606	6.3966
387.000000	65.469	5.3073
395.000000	65.257	3.7548
400.000000	65.136	2.8577
406.000000	65.010	1.7762
412.000000	64.907	0.6205
418.000000	64.832	-0.6159
425.000000	64.766	-2.0283
431.000000	64.713	-3.1085
437.000000	64.654	-4.0826
444.000000	64.567	-5.0884
450.000000	64.469	-5.8216
455.000000	64.371	-6.3573
462.000000	64.213	-7.0314
468.000000	64.075	-7.5494
475.000000	63.937	-8.0992
482.000000	63.834	-8.6836
487.000000	63.784	-9.1688
494.000000	63.747	-9.8906
500.000000	63.741	-10.4500
508.000000	63.752	-11.0073
515.000000	63.764	-11.3760
522.000000	63.771	-11.7451
530.000000	63.775	-12.2157
538.000000	63.779	-12.6912
545.000000	63.782	-13.0789
552.000000	63.786	-13.4689
560.000000	63.796	-13.9635
570.000000	63.819	-14.6642
580.000000	63.864	-15.3963
590.000000	63.946	-16.1695
600.000000	64.063	-17.1431
608.000000	64.167	-18.1224
615.000000	64.255	-19.0627
622.000000	64.331	-19.9949
630.000000	64.396	-20.9779
640.000000	64.451	-22.1143
650.000000	64.501	-23.3228
660.000000	64.585	-24.7427
670.000000	64.722	-26.3543
680.000000	64.893	-28.0580
690.000000	65.073	-29.7620
700.000000	65.247	-31.4109
710.000000	65.409	-33.0262
720.000000	65.541	-34.6371
730.000000	65.630	-36.1875
740.000000	65.679	-37.6110
750.000000	65.701	-38.8970
762.000000	65.709	-40.3537
775.000000	65.725	-42.0630
788.000000	65.776	-44.0742
800.000000	65.857	-46.1070
812.000000	65.957	-48.1247
825.000000	66.066	-50.2235
838.000000	66.158	-52.2701
850.000000	66.218	-54.0955
862.000000	66.258	-55.8314
875.000000	66.285	-57.6340
885.000000	66.298	-59.0218
900.000000	66.321	-61.2164
912.000000	66.354	-63.0999
925.000000	66.401	-65.2289
938.000000	66.446	-67.3223
950.000000	66.480	-69.0966
962.000000	66.506	-70.6956
975.000000	66.530	-72.2927
988.000000	66.558	-73.8632
1000.000000	66.598	-75.3948
1015.000000	66.672	-77.4417
1030.000000	66.767	-79.4798
1044.000000	66.866	-81.2287
1060.000000	66.989	-83.0578
1075.000000	67.107	-84.6791
1090.000000	67.217	-86.1948
1106.000000	67.315	-87.6592
1120.000000	67.383	-88.8187
1138.000000	67.444	-90.1822
1150.000000	67.472	-91.0450
1172.000000	67.516	-92.6303
1180.000000	67.535	-93.2393
1206.000000	67.630	-95.4842
1220.000000	67.704	-96.8526
1241.000000	67.847	-98.9795
1250.000000	67.922	-99.8895
1265.000000	68.068	-101.4144
1280.000000	68.234	-102.9970
1315.000000	68.633	-107.0272
1320.000000	68.682	-107.6073
1340.000000	68.844	-109.7676
1360.000000	68.941	-111.5257
1380.000000	68.992	-112.9010
1400.000000	69.033	-114.0657
1430.000000	69.143	-115.8276
1450.000000	69.273	-117.1380
1475.000000	69.506	-118.9762
1500.000000	69.803	-121.1291
1525.000000	70.131	-123.5732
1550.000000	70.460	-126.1452
1575.000000	70.770	-128.6859
1600.000000	71.057	-131.2076
1625.000000	71.317	-133.7663
1650.000000	71.539	-136.4011
1675.000000	71.724	-139.1652
1700.000000	71.877	-142.0557
1725.000000	72.002	-144.9873
1750.000000	72.103	-147.8571
1775.000000	72.182	-150.6452
1800.000000	72.248	-153.3733
1825.000000	72.311	-156.0189
1850.000000	72.380	-158.5386
1875.000000	72.453	-160.8889
1900.000000	72.529	-163.0603
1925.000000	72.606	-165.0756
1950.000000	72.683	-166.9686
1975.000000	72.758	-168.7866
2000.000000	72.831	-170.5734
2030.000000	72.918	-172.6830
2060.000000	73.010	-174.7070
2090.000000	73.104	-176.6206
2120.000000	73.193	-178.4475
2140.000000	73.252	-179.6396
2180.000000	73.385	177.9743
2200.000000	73.458	176.7583
2240.000000	73.614	174.3132
2270.000000	73.741	172.4917
2300.000000	73.880	170.6667
2330.000000	74.025	168.8157
2360.000000	74.169	166.9072
2400.000000	74.348	164.2593
2430.000000	74.465	162.2188
2470.000000	74.590	159.4689
2500.000000	74.661	157.3929
2540.000000	74.723	154.6073
2580.000000	74.752	151.8432
2620.000000	74.751	149.1202
2650.000000	74.734	147.0739
2690.000000	74.688	144.3248
2720.000000	74.632	142.2705
2760.000000	74.523	139.5905
2800.000000	74.367	137.0592
2850.000000	74.104	134.2674
2900.000000	73.792	132.0051
2950.000000	73.456	130.2501
3000.000000	73.111	128.9548
3040.000000	72.830	128.2186
3070.000000	72.619	127.8192
3110.000000	72.344	127.4620
3150.000000	72.084	127.2689
3200.000000	71.783	127.2173
3250.000000	71.496	127.3608
3300.000000	71.199	127.7299
3350.000000	70.873	128.4132
3400.000000	70.509	129.5178
3450.000000	70.111	131.1586
3500.000000	69.703	133.3908
3550.000000	69.322	136.1625
3600.000000	69.006	139.3582
3650.000000	68.773	142.8626
3700.000000	68.616	146.6389
3750.000000	68.531	150.7531
3820.000000	68.556	157.3002
3870.000000	68.724	162.3786
3950.000000	69.272	169.8926
4000.000000	69.710	173.5908
4060.000000	70.237	177.0505
4120.000000	70.730	179.8044
4180.000000	71.188	-177.9169
4250.000000	71.686	-175.9084
4310.000000	72.071	-174.8402
4370.000000	72.399	-174.2728
4440.000000	72.711	-173.8385
4500.000000	72.935	-173.3084
4550.000000	73.090	-172.6363
4620.000000	73.216	-171.3105
4680.000000	73.203	-169.9148
4750.000000	73.074	-168.4266
4820.000000	72.877	-167.3727
4870.000000	72.693	-166.8029
4940.000000	72.355	-166.1463
5000.000000	71.978	-165.6251
5080.000000	71.357	-164.5424
5150.000000	70.734	-162.7175
5220.000000	70.057	-159.8343
5300.000000	69.239	-155.2362
5380.000000	68.424	-149.4622
5450.000000	67.744	-143.6904
5520.000000	67.098	-137.3084
5600.000000	66.409	-129.1313
5700.000000	65.687	-117.6024
5800.000000	65.172	-105.4113
5900.000000	64.831	-93.4835
6000.000000	64.574	-82.1446
6080.000000	64.372	-73.3626
6150.000000	64.175	-65.7277
6220.000000	63.954	-58.0292
6300.000000	63.671	-49.0562
6400.000000	63.286	-37.4839
6500.000000	62.879	-25.4126
6600.000000	62.468	-12.7362
6700.000000	62.070	0.5812
6800.000000	61.706	14.6181
6900.000000	61.406	29.4703
7000.000000	61.204	45.0440
7100.000000	61.127	61.0850
7200.000000	61.198	77.2517
7300.000000	61.412	93.1967
7400.000000	61.750	108.7359
7500.000000	62.192	123.8096
7620.000000	62.833	141.0929
7750.000000	63.590	158.3462
7880.000000	64.282	173.4571
8000.000000	64.748	-174.7738
8120.000000	64.948	-164.9633
8250.000000	64.765	-155.8407
8380.000000	64.108	-146.8554
8500.000000	63.104	-136.9578
8620.000000	61.831	-123.9965
8750.000000	60.347	-105.5953
8850.000000	59.260	-88.4321
9000.000000	57.891	-58.2087
9120.000000	57.149	-30.0270
9250.000000	56.846	2.8521
9380.000000	57.055	33.0018
9500.000000	57.508	55.5372
9620.000000	57.967	73.4984
9750.000000	58.261	89.5909
9880.000000	58.223	104.2552
10000.000000	57.884	118.2488
10150.000000	57.147	138.2167
10300.000000	56.228	161.7861
10440.000000	55.335	-173.3161
10600.000000	54.367	-142.5075
10750.000000	53.550	-112.2672
10900.000000	52.834	-81.0111
11060.000000	52.203	-46.2112
11200.000000	51.802	-13.8920
11380.000000	51.555	30.2754
11500.000000	51.577	60.0287
11720.000000	51.929	110.8971
11800.000000	52.109	127.8301
12060.000000	52.662	178.8761
12200.000000	52.862	-155.0249
12410.000000	52.979	-116.7129
12500.000000	52.954	-100.4202
12650.000000	52.805	-73.1064
12800.000000	52.522	-45.1641
13150.000000	51.444	25.3395
13200.000000	51.263	36.2085
13400.000000	50.573	82.3578
13600.000000	50.166	136.2913
13800.000000	50.378	-157.2802
14000.000000	51.277	-94.1646
14300.000000	53.142	-30.3672
14500.000000	54.139	0.5077
14750.000000	54.690	34.0769
15000.000000	54.400	67.9918
15250.000000	53.526	109.8314
15500.000000	52.574	172.5667
15750.000000	52.042	-106.0941
16000.000000	52.073	-38.3618
16250.000000	52.497	19.9839
16500.000000	53.012	70.5210
16750.000000	53.272	111.9624
17000.000000	53.017	148.4973
17250.000000	52.174	-174.2961
17500.000000	50.810	-133.2097
17750.000000	49.002	-89.4351
18000.000000	46.768	-45.8677
18250.000000	44.126	-3.0793
18500.000000	41.218	40.1135
18750.000000	38.736	85.1443
19000.000000	38.148	134.2939
19250.000000	39.385	-172.5073
19500.000000	40.944	-122.3687
19750.000000	42.070	-85.5356
20000.000000	42.615	-66.9412
