* Measurement data measured by REW V5.31.3
* Source: Microphone (6- USB Sound Device        ), MICROPHONE (Master Volume), L, volume: 0.700
* Format: 256k Log Swept Sine, 1 sweep at -12.0 dBFS with no timing reference
* Dated: 23-May-2025 15:24:07
* REW Settings:
*  C-weighting compensation: Off
*  Target level: 75.0 dB
* Note: 
* Measurement: Moondrop Pill L
* Smoothing: 1/12 octave
* Frequency Step: 1/48 octave
* Start Frequency: 20.300 Hz
*
* Freq(Hz)	SPL(dB)	Phase(degrees)
20.299999	41.877	143.7401
20.600000	41.606	143.0819
20.900000	41.349	141.9117
21.200001	41.260	140.2630
21.400000	41.341	138.9778
21.799999	41.832	136.2675
22.000000	42.193	134.9664
22.400000	42.978	132.6743
22.700001	43.508	131.3255
23.000000	43.929	130.3622
23.299999	44.235	129.8169
23.600000	44.452	129.6567
24.000000	44.683	129.7832
24.299999	44.866	129.8164
24.700001	45.159	129.3228
25.000000	45.403	128.4302
25.400000	45.717	126.7181
25.799999	45.984	124.8288
26.200001	46.189	123.1411
26.500000	46.302	122.0852
26.900000	46.395	120.8952
27.200001	46.422	120.1014
27.600000	46.415	119.1273
28.000000	46.416	118.2069
28.500000	46.557	116.8379
29.000000	46.916	114.6225
29.500000	47.371	111.3601
30.000000	47.719	107.8759
30.400000	47.854	105.8540
30.700001	47.891	105.1822
31.100000	47.917	105.5436
31.500000	47.986	107.0172
32.000000	48.162	109.3226
32.500000	48.373	111.0838
33.000000	48.561	111.9336
33.500000	48.755	111.8867
34.000000	49.008	110.8846
34.500000	49.314	108.9487
35.000000	49.607	106.4735
35.500000	49.833	104.0991
36.000000	49.991	102.2862
36.500000	50.107	101.0421
37.000000	50.192	100.0668
37.500000	50.235	99.1723
38.200001	50.273	98.3522
38.700001	50.404	98.2476
39.500000	50.919	97.8955
40.000000	51.298	96.9564
40.599998	51.627	95.4585
41.200001	51.822	94.3323
41.799999	52.022	93.6500
42.500000	52.364	92.4515
43.099998	52.675	90.7510
43.700001	52.917	89.0956
44.400002	53.107	88.1573
45.000000	53.230	88.0658
45.500000	53.320	87.8255
46.200001	53.435	86.3004
46.799999	53.598	84.0289
47.500000	54.066	81.4803
48.200001	54.864	79.6732
48.700001	55.428	78.5418
49.400002	55.860	77.0403
50.000000	55.774	76.2712
50.799999	55.233	76.3862
51.500000	54.790	76.4740
52.200001	54.627	75.3259
53.000000	54.679	73.2150
53.799999	54.786	71.6816
54.500000	54.854	70.8638
55.200001	54.906	70.0192
56.000000	54.993	68.7557
57.000000	55.174	66.9789
58.000000	55.362	65.1623
59.000000	55.482	63.2867
60.000000	55.584	61.5796
60.799999	55.684	60.3804
61.500000	55.768	59.4005
62.200001	55.834	58.4794
63.000000	55.891	57.5288
64.000000	55.956	56.4783
65.000000	56.020	55.3687
66.000000	56.075	54.0145
67.000000	56.152	52.4671
68.000000	56.277	50.8643
69.000000	56.412	49.4671
70.000000	56.499	48.4492
71.000000	56.512	47.6781
72.000000	56.481	46.8703
73.000000	56.452	45.8601
74.000000	56.437	44.7849
75.000000	56.443	43.6838
76.199997	56.475	42.1511
77.500000	56.545	40.5519
78.800003	56.626	39.5064
80.000000	56.676	38.9265
81.199997	56.713	38.1771
82.500000	56.735	37.0121
83.800003	56.737	35.8425
85.000000	56.745	34.9017
86.199997	56.771	34.0204
87.500000	56.809	33.1139
88.500000	56.833	32.4901
90.000000	56.852	31.7755
91.199997	56.872	31.3639
92.500000	56.900	30.9201
93.800003	56.909	30.3456
95.000000	56.894	29.6923
96.199997	56.882	29.0344
97.500000	56.882	28.4404
98.800003	56.878	28.0211
100.000000	56.871	27.6900
101.500000	56.886	27.0661
103.000000	56.941	26.1615
104.400002	57.003	25.1765
106.000000	57.060	24.0016
107.500000	57.103	22.9548
109.000000	57.138	22.0402
110.599998	57.166	21.1898
112.000000	57.181	20.5809
113.800003	57.210	19.9664
115.000000	57.253	19.5082
117.199997	57.370	18.4742
118.000000	57.409	18.0878
120.599998	57.513	16.7945
122.000000	57.585	16.1494
124.099998	57.700	15.3277
125.000000	57.743	15.0195
126.500000	57.805	14.5479
128.000000	57.860	14.0629
131.500000	57.962	12.2748
132.000000	57.975	11.9756
134.000000	58.028	10.9207
136.000000	58.096	10.1786
138.000000	58.181	9.5002
140.000000	58.277	8.5279
143.000000	58.402	6.8863
145.000000	58.475	5.8962
147.500000	58.599	4.8094
150.000000	58.757	3.7020
152.500000	58.897	2.1712
155.000000	59.012	0.4547
157.500000	59.119	-1.1724
160.000000	59.199	-2.8762
162.500000	59.235	-4.7160
165.000000	59.296	-6.2445
167.500000	59.434	-7.3357
170.000000	59.592	-8.5743
172.500000	59.729	-10.1654
175.000000	59.815	-11.8464
177.500000	59.858	-13.4353
180.000000	59.883	-14.8748
182.500000	59.903	-16.2638
185.000000	59.920	-17.7422
187.500000	59.940	-19.2606
190.000000	59.966	-20.6968
192.500000	59.994	-22.1186
195.000000	60.015	-23.5838
197.500000	60.037	-25.0411
200.000000	60.072	-26.5276
203.000000	60.136	-28.4012
206.000000	60.217	-30.3522
209.000000	60.296	-32.2829
212.000000	60.339	-34.0759
214.000000	60.335	-35.1230
218.000000	60.280	-37.0722
220.000000	60.252	-38.1059
224.000000	60.221	-40.2669
227.000000	60.210	-41.8574
230.000000	60.198	-43.3996
233.000000	60.187	-44.9214
236.000000	60.174	-46.4432
240.000000	60.156	-48.4651
243.000000	60.141	-49.9776
247.000000	60.115	-51.9937
250.000000	60.094	-53.4909
254.000000	60.067	-55.3849
258.000000	60.039	-57.0252
262.000000	60.017	-58.5161
265.000000	59.999	-59.6692
269.000000	59.956	-61.2780
272.000000	59.918	-62.4735
276.000000	59.879	-63.9630
280.000000	59.861	-65.3842
285.000000	59.844	-67.1510
290.000000	59.819	-68.9649
295.000000	59.787	-70.7170
300.000000	59.770	-72.4484
304.000000	59.778	-73.9118
307.000000	59.794	-75.0066
311.000000	59.816	-76.4364
315.000000	59.824	-77.9295
320.000000	59.814	-79.8855
325.000000	59.798	-81.7910
330.000000	59.801	-83.5446
335.000000	59.841	-85.3985
340.000000	59.901	-87.3600
345.000000	59.951	-89.2253
350.000000	59.986	-90.9195
355.000000	60.008	-92.4676
360.000000	60.021	-94.0163
365.000000	60.028	-95.8221
370.000000	60.035	-97.9063
375.000000	60.038	-100.0337
382.000000	60.037	-102.6378
387.000000	60.054	-104.2302
395.000000	60.113	-106.4700
400.000000	60.142	-107.7763
406.000000	60.174	-109.2196
412.000000	60.207	-110.4986
418.000000	60.228	-111.5780
425.000000	60.232	-112.7327
431.000000	60.233	-113.6572
437.000000	60.243	-114.5392
444.000000	60.268	-115.5575
450.000000	60.308	-116.4193
455.000000	60.352	-117.1542
462.000000	60.408	-118.2975
468.000000	60.442	-119.3737
475.000000	60.471	-120.5959
482.000000	60.498	-121.7904
487.000000	60.520	-122.7131
494.000000	60.570	-124.1066
500.000000	60.620	-125.3053
508.000000	60.675	-126.7864
515.000000	60.715	-127.9330
522.000000	60.751	-128.9933
530.000000	60.795	-130.2312
538.000000	60.840	-131.5749
545.000000	60.871	-132.8213
552.000000	60.893	-134.0446
560.000000	60.914	-135.3317
570.000000	60.941	-136.7653
580.000000	60.970	-138.0234
590.000000	61.004	-139.3015
600.000000	61.021	-140.5871
608.000000	61.029	-141.5736
615.000000	61.040	-142.4247
622.000000	61.059	-143.2956
630.000000	61.093	-144.3565
640.000000	61.143	-145.8734
650.000000	61.181	-147.5060
660.000000	61.204	-148.9910
670.000000	61.213	-150.1929
680.000000	61.220	-151.3354
690.000000	61.228	-152.4741
700.000000	61.238	-153.5667
710.000000	61.256	-154.6708
720.000000	61.275	-155.7853
730.000000	61.290	-156.8371
740.000000	61.308	-157.8760
750.000000	61.331	-158.8985
762.000000	61.357	-160.0224
775.000000	61.386	-161.1246
788.000000	61.435	-162.2341
800.000000	61.499	-163.2831
812.000000	61.561	-164.3754
825.000000	61.616	-165.5554
838.000000	61.657	-166.6944
850.000000	61.692	-167.7241
862.000000	61.728	-168.7862
875.000000	61.755	-169.9906
885.000000	61.762	-170.9405
900.000000	61.762	-172.3371
912.000000	61.766	-173.2992
925.000000	61.790	-174.1552
938.000000	61.838	-175.0393
950.000000	61.892	-176.1447
962.000000	61.931	-177.7496
975.000000	61.950	179.9188
988.000000	61.959	177.2082
1000.000000	61.962	174.6136
1015.000000	61.958	171.3532
1030.000000	61.969	168.0561
1044.000000	61.994	164.9687
1060.000000	62.023	161.4529
1075.000000	62.049	158.1083
1090.000000	62.079	154.6638
1106.000000	62.112	150.9653
1120.000000	62.140	147.7994
1138.000000	62.169	143.8450
1150.000000	62.187	141.2147
1172.000000	62.236	136.2070
1180.000000	62.261	134.3520
1206.000000	62.354	128.4218
1220.000000	62.406	125.3121
1241.000000	62.494	120.6429
1250.000000	62.539	118.6168
1265.000000	62.626	115.2173
1280.000000	62.726	111.8254
1315.000000	62.956	103.9904
1320.000000	62.984	102.8706
1340.000000	63.077	98.4089
1360.000000	63.131	93.9834
1380.000000	63.150	89.5235
1400.000000	63.145	84.9661
1430.000000	63.145	77.9560
1450.000000	63.175	73.2649
1475.000000	63.262	67.4226
1500.000000	63.389	61.6311
1525.000000	63.516	55.9089
1550.000000	63.634	50.0902
1575.000000	63.757	44.1083
1600.000000	63.883	38.1284
1625.000000	63.998	32.2823
1650.000000	64.103	26.5355
1675.000000	64.210	20.7922
1700.000000	64.318	15.0416
1725.000000	64.427	9.2397
1750.000000	64.540	3.4302
1775.000000	64.655	-2.3005
1800.000000	64.769	-7.9568
1825.000000	64.881	-13.5745
1850.000000	64.996	-19.1036
1875.000000	65.121	-24.4888
1900.000000	65.263	-29.7291
1925.000000	65.427	-34.8641
1950.000000	65.619	-39.9863
1975.000000	65.841	-45.1555
2000.000000	66.090	-50.3570
2030.000000	66.413	-56.6501
2060.000000	66.768	-63.0978
2090.000000	67.158	-69.7618
2120.000000	67.575	-76.6180
2140.000000	67.858	-81.2974
2180.000000	68.436	-91.0435
2200.000000	68.736	-96.1233
2240.000000	69.357	-106.6136
2270.000000	69.826	-114.6260
2300.000000	70.279	-122.7312
2330.000000	70.713	-130.9900
2360.000000	71.139	-139.3681
2400.000000	71.700	-150.6932
2430.000000	72.112	-159.3530
2470.000000	72.643	-171.1238
2500.000000	73.027	179.9569
2540.000000	73.520	168.0831
2580.000000	74.004	156.3102
2620.000000	74.505	144.5276
2650.000000	74.898	135.5818
2690.000000	75.442	123.5233
2720.000000	75.868	114.3973
2760.000000	76.472	102.1249
2800.000000	77.129	89.5780
2850.000000	77.992	73.0965
2900.000000	78.826	55.6370
2950.000000	79.554	37.4540
3000.000000	80.134	18.7585
3040.000000	80.520	3.6276
3070.000000	80.785	-7.7516
3110.000000	81.106	-22.9989
3150.000000	81.371	-38.4036
3200.000000	81.601	-57.7477
3250.000000	81.723	-76.8945
3300.000000	81.761	-95.7540
3350.000000	81.748	-114.3210
3400.000000	81.703	-132.5795
3450.000000	81.645	-150.6055
3500.000000	81.573	-168.5168
3550.000000	81.488	173.5933
3600.000000	81.382	155.7635
3650.000000	81.244	138.1304
3700.000000	81.069	120.9861
3750.000000	80.884	104.9647
3820.000000	80.697	86.2319
3870.000000	80.623	75.9937
3950.000000	80.476	63.0928
4000.000000	80.334	55.9028
4060.000000	80.103	47.4208
4120.000000	79.783	38.9386
4180.000000	79.360	30.5917
4250.000000	78.732	21.2566
4310.000000	78.070	13.7589
4370.000000	77.272	6.9873
4440.000000	76.191	0.5522
4500.000000	75.224	-3.4187
4550.000000	74.460	-5.7899
4620.000000	73.492	-8.0563
4680.000000	72.752	-9.1042
4750.000000	72.008	-9.3115
4820.000000	71.420	-8.8044
4870.000000	71.079	-8.3132
4940.000000	70.649	-7.4412
5000.000000	70.302	-6.1860
5080.000000	69.941	-3.3115
5150.000000	69.826	0.4094
5220.000000	69.992	4.6941
5300.000000	70.528	8.9677
5380.000000	71.309	11.4332
5450.000000	72.045	11.9038
5520.000000	72.751	11.2570
5600.000000	73.519	9.6992
5700.000000	74.429	6.6952
5800.000000	75.214	2.5592
5900.000000	75.831	-2.3264
6000.000000	76.244	-7.6414
6080.000000	76.394	-11.7999
6150.000000	76.415	-14.9943
6220.000000	76.377	-17.6569
6300.000000	76.309	-20.1945
6400.000000	76.195	-22.9504
6500.000000	76.016	-25.2382
6600.000000	75.768	-26.7383
6700.000000	75.505	-27.1903
6800.000000	75.306	-26.7288
6900.000000	75.203	-25.7551
7000.000000	75.176	-24.6586
7100.000000	75.188	-23.6992
7200.000000	75.204	-22.8900
7300.000000	75.204	-22.0580
7400.000000	75.189	-21.0125
7500.000000	75.182	-19.7598
7620.000000	75.179	-18.2155
7750.000000	75.081	-16.4467
7880.000000	74.789	-13.9327
8000.000000	74.357	-10.3450
8120.000000	73.840	-5.0994
8250.000000	73.335	2.7561
8380.000000	73.096	12.2832
8500.000000	73.215	21.2030
8620.000000	73.613	28.8237
8750.000000	74.173	34.7675
8850.000000	74.570	37.8505
9000.000000	74.999	40.5656
9120.000000	75.165	40.8881
9250.000000	75.157	38.1906
9380.000000	74.963	30.2566
9500.000000	74.644	17.2118
9620.000000	74.243	-0.2573
9750.000000	73.737	-21.8408
9880.000000	73.112	-44.2595
10000.000000	72.366	-64.8088
10150.000000	71.159	-89.4746
10300.000000	69.749	-112.3489
10440.000000	68.512	-132.1594
10600.000000	67.544	-154.2374
10750.000000	67.094	-175.9147
10900.000000	66.785	160.7867
11060.000000	66.237	134.6306
11200.000000	65.438	111.5203
11380.000000	64.010	82.5608
11500.000000	62.888	63.9614
11720.000000	60.659	31.4008
11800.000000	59.824	20.0321
12060.000000	57.104	-15.2562
12200.000000	55.659	-33.4706
12410.000000	53.493	-60.4529
12500.000000	52.533	-71.9487
12650.000000	50.844	-90.9324
12800.000000	49.022	-109.3553
13150.000000	44.873	-136.8733
13200.000000	44.525	-132.6309
13400.000000	44.644	-80.9966
13600.000000	46.599	-82.0370
13800.000000	48.759	-106.0266
14000.000000	50.525	-134.6077
14300.000000	52.384	179.9347
14500.000000	53.201	148.8080
14750.000000	53.976	110.2202
15000.000000	54.642	72.0056
15250.000000	55.097	33.0708
15500.000000	55.203	-6.2590
15750.000000	54.971	-44.9221
16000.000000	54.541	-83.2153
16250.000000	54.157	-121.1724
16500.000000	54.084	-158.3860
16750.000000	54.415	164.7407
17000.000000	54.953	126.9021
17250.000000	55.369	87.5647
17500.000000	55.412	47.6848
17750.000000	55.024	7.7993
18000.000000	54.309	-31.7542
18250.000000	53.368	-69.9934
18500.000000	52.228	-105.6953
18750.000000	50.934	-138.6809
19000.000000	49.725	-170.3582
19250.000000	49.036	157.3237
19500.000000	49.143	124.8005
19750.000000	49.781	98.2874
20000.000000	50.319	84.0625
