* Measurement data measured by REW V5.31.3
* Source: D:\Graphs\TXT\Moondrop Edge A L.txt
* Format: Comma/Tab/Space delimited data
* Dated: 13-Jan-2025 15:27:23
* REW Settings:
*  C-weighting compensation: Off
*  Target level: 75.0 dB
* Note: 
* Measurement: Moondrop Edge A L
* Smoothing: 1/12 octave
* Frequency Step: 1/48 octave
* Start Frequency: 20.300 Hz
*
* Freq(Hz)	SPL(dB)
20.299999	76.272
20.600000	76.255
20.900000	76.226
21.200001	76.181
21.400000	76.136
21.799999	76.012
22.000000	75.938
22.400000	75.785
22.700001	75.676
23.000000	75.573
23.299999	75.479
23.600000	75.396
24.000000	75.278
24.299999	75.182
24.700001	75.093
25.000000	75.060
25.400000	75.036
25.799999	75.019
26.200001	75.006
26.500000	74.995
26.900000	74.970
27.200001	74.936
27.600000	74.874
28.000000	74.812
28.500000	74.748
29.000000	74.659
29.500000	74.519
30.000000	74.377
30.400000	74.301
30.700001	74.259
31.100000	74.202
31.500000	74.125
32.000000	74.005
32.500000	73.880
33.000000	73.765
33.500000	73.666
34.000000	73.586
34.500000	73.528
35.000000	73.485
35.500000	73.449
36.000000	73.412
36.500000	73.369
37.000000	73.322
37.500000	73.275
38.200001	73.215
38.700001	73.177
39.500000	73.112
40.000000	73.057
40.599998	72.972
41.200001	72.873
41.799999	72.770
42.500000	72.650
43.099998	72.551
43.700001	72.459
44.400002	72.365
45.000000	72.300
45.500000	72.260
46.200001	72.221
46.799999	72.200
47.500000	72.184
48.200001	72.173
48.700001	72.166
49.400002	72.158
50.000000	72.148
50.799999	72.130
51.500000	72.110
52.200001	72.089
53.000000	72.062
53.799999	72.035
54.500000	72.010
55.200001	71.983
56.000000	71.952
57.000000	71.910
58.000000	71.865
59.000000	71.815
60.000000	71.758
60.799999	71.706
61.500000	71.656
62.200001	71.604
63.000000	71.542
64.000000	71.465
65.000000	71.387
66.000000	71.311
67.000000	71.237
68.000000	71.166
69.000000	71.101
70.000000	71.045
71.000000	70.998
72.000000	70.961
73.000000	70.929
74.000000	70.902
75.000000	70.878
76.199997	70.851
77.500000	70.825
78.800003	70.800
80.000000	70.777
81.199997	70.753
82.500000	70.725
83.800003	70.696
85.000000	70.668
86.199997	70.638
87.500000	70.605
88.500000	70.577
90.000000	70.532
91.199997	70.493
92.500000	70.448
93.800003	70.398
95.000000	70.350
96.199997	70.297
97.500000	70.233
98.800003	70.159
100.000000	70.080
101.500000	69.976
103.000000	69.894
104.400002	69.839
106.000000	69.793
107.500000	69.757
109.000000	69.721
110.599998	69.679
112.000000	69.638
113.800003	69.579
115.000000	69.538
117.199997	69.462
118.000000	69.435
120.599998	69.352
122.000000	69.312
124.099998	69.256
125.000000	69.233
126.500000	69.195
128.000000	69.156
131.500000	69.055
132.000000	69.040
134.000000	68.975
136.000000	68.910
138.000000	68.845
140.000000	68.782
143.000000	68.694
145.000000	68.637
147.500000	68.567
150.000000	68.493
152.500000	68.416
155.000000	68.335
157.500000	68.255
160.000000	68.178
162.500000	68.106
165.000000	68.034
167.500000	67.959
170.000000	67.877
172.500000	67.786
175.000000	67.692
177.500000	67.605
180.000000	67.532
182.500000	67.479
185.000000	67.448
187.500000	67.439
190.000000	67.453
192.500000	67.489
195.000000	67.538
197.500000	67.587
200.000000	67.628
203.000000	67.665
206.000000	67.696
209.000000	67.728
212.000000	67.768
214.000000	67.802
218.000000	67.904
220.000000	67.979
224.000000	68.177
227.000000	68.341
230.000000	68.482
233.000000	68.586
236.000000	68.659
240.000000	68.742
243.000000	68.814
247.000000	68.930
250.000000	69.028
254.000000	69.170
258.000000	69.323
262.000000	69.487
265.000000	69.618
269.000000	69.802
272.000000	69.944
276.000000	70.125
280.000000	70.280
285.000000	70.438
290.000000	70.613
295.000000	70.832
300.000000	71.028
304.000000	71.125
307.000000	71.172
311.000000	71.225
315.000000	71.291
320.000000	71.409
325.000000	71.555
330.000000	71.690
335.000000	71.764
340.000000	71.765
345.000000	71.721
350.000000	71.660
355.000000	71.593
360.000000	71.523
365.000000	71.451
370.000000	71.375
375.000000	71.296
382.000000	71.185
387.000000	71.107
395.000000	70.991
400.000000	70.923
406.000000	70.845
412.000000	70.773
418.000000	70.707
425.000000	70.633
431.000000	70.573
437.000000	70.518
444.000000	70.466
450.000000	70.432
455.000000	70.411
462.000000	70.390
468.000000	70.377
475.000000	70.365
482.000000	70.354
487.000000	70.346
494.000000	70.337
500.000000	70.332
508.000000	70.335
515.000000	70.345
522.000000	70.363
530.000000	70.391
538.000000	70.425
545.000000	70.457
552.000000	70.490
560.000000	70.524
570.000000	70.558
580.000000	70.587
590.000000	70.620
600.000000	70.667
608.000000	70.718
615.000000	70.772
622.000000	70.833
630.000000	70.907
640.000000	71.004
650.000000	71.102
660.000000	71.199
670.000000	71.297
680.000000	71.394
690.000000	71.494
700.000000	71.599
710.000000	71.710
720.000000	71.827
730.000000	71.947
740.000000	72.068
750.000000	72.187
762.000000	72.326
775.000000	72.470
788.000000	72.609
800.000000	72.733
812.000000	72.854
825.000000	72.982
838.000000	73.104
850.000000	73.214
862.000000	73.319
875.000000	73.426
885.000000	73.504
900.000000	73.609
912.000000	73.683
925.000000	73.753
938.000000	73.815
950.000000	73.866
962.000000	73.915
975.000000	73.969
988.000000	74.025
1000.000000	74.079
1015.000000	74.152
1030.000000	74.233
1044.000000	74.319
1060.000000	74.431
1075.000000	74.550
1090.000000	74.685
1106.000000	74.843
1120.000000	74.991
1138.000000	75.194
1150.000000	75.334
1172.000000	75.601
1180.000000	75.701
1206.000000	76.044
1220.000000	76.241
1241.000000	76.553
1250.000000	76.694
1265.000000	76.934
1280.000000	77.178
1315.000000	77.712
1320.000000	77.780
1340.000000	78.021
1360.000000	78.208
1380.000000	78.349
1400.000000	78.455
1430.000000	78.580
1450.000000	78.647
1475.000000	78.707
1500.000000	78.730
1525.000000	78.715
1550.000000	78.662
1575.000000	78.580
1600.000000	78.477
1625.000000	78.365
1650.000000	78.254
1675.000000	78.154
1700.000000	78.065
1725.000000	77.987
1750.000000	77.918
1775.000000	77.858
1800.000000	77.808
1825.000000	77.771
1850.000000	77.749
1875.000000	77.742
1900.000000	77.749
1925.000000	77.772
1950.000000	77.812
1975.000000	77.871
2000.000000	77.953
2030.000000	78.084
2060.000000	78.249
2090.000000	78.442
2120.000000	78.649
2140.000000	78.791
2180.000000	79.071
2200.000000	79.209
2240.000000	79.487
2270.000000	79.706
2300.000000	79.937
2330.000000	80.181
2360.000000	80.431
2400.000000	80.765
2430.000000	81.006
2470.000000	81.303
2500.000000	81.503
2540.000000	81.734
2580.000000	81.924
2620.000000	82.071
2650.000000	82.150
2690.000000	82.213
2720.000000	82.227
2760.000000	82.198
2800.000000	82.115
2850.000000	81.939
2900.000000	81.691
2950.000000	81.386
3000.000000	81.039
3040.000000	80.740
3070.000000	80.510
3110.000000	80.200
3150.000000	79.898
3200.000000	79.540
3250.000000	79.212
3300.000000	78.913
3350.000000	78.638
3400.000000	78.380
3450.000000	78.128
3500.000000	77.875
3550.000000	77.615
3600.000000	77.350
3650.000000	77.089
3700.000000	76.840
3750.000000	76.607
3820.000000	76.285
3870.000000	76.032
3950.000000	75.534
4000.000000	75.152
4060.000000	74.640
4120.000000	74.123
4180.000000	73.676
4250.000000	73.337
4310.000000	73.246
4370.000000	73.334
4440.000000	73.601
4500.000000	73.908
4550.000000	74.182
4620.000000	74.555
4680.000000	74.845
4750.000000	75.141
4820.000000	75.395
4870.000000	75.557
4940.000000	75.770
5000.000000	75.950
5080.000000	76.191
5150.000000	76.396
5220.000000	76.582
5300.000000	76.745
5380.000000	76.835
5450.000000	76.837
5520.000000	76.761
5600.000000	76.580
5700.000000	76.236
5800.000000	75.800
5900.000000	75.300
6000.000000	74.746
6080.000000	74.257
6150.000000	73.791
6220.000000	73.287
6300.000000	72.671
6400.000000	71.857
6500.000000	71.031
6600.000000	70.243
6700.000000	69.540
6800.000000	68.965
6900.000000	68.550
7000.000000	68.310
7100.000000	68.246
7200.000000	68.348
7300.000000	68.594
7400.000000	68.957
7500.000000	69.401
7620.000000	69.991
7750.000000	70.628
7880.000000	71.195
8000.000000	71.621
8120.000000	71.943
8250.000000	72.175
8380.000000	72.277
8500.000000	72.232
8620.000000	72.029
8750.000000	71.602
8850.000000	71.120
9000.000000	70.152
9120.000000	69.185
9250.000000	67.978
9380.000000	66.657
9500.000000	65.402
9620.000000	64.196
9750.000000	63.058
9880.000000	62.209
10000.000000	61.723
10150.000000	61.425
10300.000000	61.258
10440.000000	61.032
10600.000000	60.583
10750.000000	60.017
10900.000000	59.501
11060.000000	59.367
11200.000000	59.849
11380.000000	61.217
11500.000000	62.375
11720.000000	64.531
11800.000000	65.254
12060.000000	67.232
12200.000000	68.034
12410.000000	68.883
12500.000000	69.121
12650.000000	69.352
12800.000000	69.382
13150.000000	68.774
13200.000000	68.623
13400.000000	67.900
13600.000000	67.083
13800.000000	66.324
14000.000000	65.749
14300.000000	65.299
14500.000000	65.208
14750.000000	65.260
15000.000000	65.531
15250.000000	66.134
15500.000000	67.134
15750.000000	68.441
16000.000000	69.811
16250.000000	70.965
16500.000000	71.701
16750.000000	71.940
17000.000000	71.720
17250.000000	71.176
17500.000000	70.490
17750.000000	69.829
18000.000000	69.290
18250.000000	68.911
18500.000000	68.700
18750.000000	68.655
19000.000000	68.746
19250.000000	68.908
19500.000000	69.064
19750.000000	69.150
