* Measurement data measured by REW V5.20.13
* Source: Microphone (2- USB Audio Device), MICROPHONE (Master Volume), L, volume: 0.250. Timing signal peak level -26.7 dBFS, measurement signal peak level -23.8 dBFS
* Format: 256k Log Swept Sine, 1 sweep at -12.0 dBFS using an acoustic timing reference
* Dated: 14-Sep-2023 21:31:24
* REW Settings:
*  C-weighting compensation: Off
*  Target level: 75.0 dB
* Note: 
* Measurement: Moondrop Chu L
* Smoothing: 1/12 octave
* Frequency Step: 1/48 octave
* Start Frequency: 20.000 Hz
*
* Freq(Hz)	SPL(dB)	Phase(degrees)
20.000000	74.170	-106.0240
20.299999	74.281	-106.9541
20.600000	74.388	-107.8475
20.900000	74.489	-108.7129
21.200001	74.583	-109.5546
21.400000	74.640	-110.1024
21.799999	74.744	-111.1664
22.000000	74.791	-111.6846
22.400000	74.878	-112.7021
22.700001	74.939	-113.4595
23.000000	74.996	-114.2224
23.299999	75.050	-114.9959
23.600000	75.101	-115.7813
24.000000	75.162	-116.8452
24.299999	75.205	-117.6514
24.700001	75.259	-118.7309
25.000000	75.299	-119.5397
25.400000	75.353	-120.6133
25.799999	75.409	-121.6783
26.200001	75.467	-122.7302
26.500000	75.510	-123.5049
26.900000	75.568	-124.5096
27.200001	75.611	-125.2355
27.600000	75.669	-126.1626
28.000000	75.727	-127.0462
28.500000	75.796	-128.0994
29.000000	75.857	-129.0978
29.500000	75.907	-130.0310
30.000000	75.949	-130.8946
30.400000	75.976	-131.5442
30.700001	75.992	-132.0141
31.100000	76.010	-132.6230
31.500000	76.022	-133.2118
32.000000	76.031	-133.9162
32.500000	76.035	-134.5836
33.000000	76.036	-135.2083
33.500000	76.035	-135.7702
34.000000	76.039	-136.2447
34.500000	76.058	-136.6414
35.000000	76.099	-137.0211
35.500000	76.161	-137.4743
36.000000	76.231	-138.0553
36.500000	76.297	-138.7511
37.000000	76.351	-139.4991
37.500000	76.393	-140.2422
38.200001	76.437	-141.2345
38.700001	76.460	-141.9140
39.500000	76.485	-142.9462
40.000000	76.495	-143.5431
40.599998	76.506	-144.2124
41.200001	76.515	-144.8456
41.799999	76.522	-145.4405
42.500000	76.527	-146.0637
43.099998	76.528	-146.5332
43.700001	76.529	-146.9503
44.400002	76.531	-147.3666
45.000000	76.541	-147.6778
45.500000	76.557	-147.9579
46.200001	76.585	-148.4768
46.799999	76.597	-149.0494
47.500000	76.589	-149.7432
48.200001	76.569	-150.3477
48.700001	76.558	-150.7269
49.400002	76.547	-151.2331
50.000000	76.534	-151.6471
50.799999	76.510	-152.1198
51.500000	76.494	-152.4581
52.200001	76.488	-152.7875
53.000000	76.490	-153.2130
53.799999	76.486	-153.6790
54.500000	76.474	-154.0769
55.200001	76.457	-154.4407
56.000000	76.436	-154.8262
57.000000	76.410	-155.3183
58.000000	76.380	-155.8403
59.000000	76.345	-156.3457
60.000000	76.310	-156.8006
60.799999	76.286	-157.1304
61.500000	76.265	-157.3982
62.200001	76.246	-157.6467
63.000000	76.223	-157.9069
64.000000	76.193	-158.2024
65.000000	76.162	-158.4749
66.000000	76.130	-158.7318
67.000000	76.095	-158.9779
68.000000	76.057	-159.2138
69.000000	76.014	-159.4320
70.000000	75.968	-159.6176
71.000000	75.923	-159.7656
72.000000	75.881	-159.8882
73.000000	75.841	-159.9948
74.000000	75.803	-160.0860
75.000000	75.763	-160.1603
76.199997	75.717	-160.2275
77.500000	75.667	-160.2800
78.800003	75.617	-160.3154
80.000000	75.571	-160.3274
81.199997	75.523	-160.3161
82.500000	75.472	-160.2793
83.800003	75.422	-160.2193
85.000000	75.376	-160.1451
86.199997	75.329	-160.0520
87.500000	75.277	-159.9286
88.500000	75.237	-159.8192
90.000000	75.177	-159.6342
91.199997	75.131	-159.4650
92.500000	75.084	-159.2597
93.800003	75.042	-159.0456
95.000000	75.005	-158.8488
96.199997	74.966	-158.6437
97.500000	74.924	-158.3984
98.800003	74.883	-158.1291
100.000000	74.848	-157.8688
101.500000	74.807	-157.5327
103.000000	74.766	-157.1761
104.400002	74.726	-156.8216
106.000000	74.680	-156.4065
107.500000	74.633	-156.0240
109.000000	74.583	-155.6383
110.599998	74.528	-155.2024
112.000000	74.485	-154.8031
113.800003	74.434	-154.2792
115.000000	74.402	-153.9235
117.199997	74.347	-153.2663
118.000000	74.327	-153.0271
120.599998	74.257	-152.2348
122.000000	74.219	-151.7905
124.099998	74.164	-151.0977
125.000000	74.141	-150.7930
126.500000	74.103	-150.2758
128.000000	74.065	-149.7442
131.500000	73.980	-148.4500
132.000000	73.968	-148.2610
134.000000	73.923	-147.5000
136.000000	73.875	-146.7334
138.000000	73.824	-145.9610
140.000000	73.773	-145.1788
143.000000	73.710	-143.9967
145.000000	73.676	-143.2245
147.500000	73.632	-142.2791
150.000000	73.583	-141.3513
152.500000	73.529	-140.4252
155.000000	73.474	-139.4781
157.500000	73.417	-138.5147
160.000000	73.358	-137.5501
162.500000	73.300	-136.5858
165.000000	73.245	-135.6099
167.500000	73.190	-134.6128
170.000000	73.132	-133.5939
172.500000	73.071	-132.5506
175.000000	73.007	-131.4725
177.500000	72.942	-130.3472
180.000000	72.871	-129.1655
182.500000	72.793	-127.9209
185.000000	72.709	-126.6130
187.500000	72.624	-125.2487
190.000000	72.548	-123.8320
192.500000	72.491	-122.3711
195.000000	72.463	-120.8996
197.500000	72.464	-119.4745
200.000000	72.489	-118.1502
203.000000	72.538	-116.7270
206.000000	72.590	-115.4631
209.000000	72.630	-114.2957
212.000000	72.652	-113.1546
214.000000	72.655	-112.3850
218.000000	72.640	-110.8105
220.000000	72.625	-110.0130
224.000000	72.585	-108.4226
227.000000	72.547	-107.2402
230.000000	72.504	-106.0642
233.000000	72.458	-104.8966
236.000000	72.412	-103.7486
240.000000	72.356	-102.2756
243.000000	72.316	-101.2303
247.000000	72.263	-99.9166
250.000000	72.224	-98.9750
254.000000	72.173	-97.7515
258.000000	72.118	-96.5650
262.000000	72.059	-95.4376
265.000000	72.014	-94.6347
269.000000	71.959	-93.6068
272.000000	71.921	-92.8542
276.000000	71.877	-91.8566
280.000000	71.839	-90.8528
285.000000	71.793	-89.6000
290.000000	71.747	-88.3678
295.000000	71.700	-87.1449
300.000000	71.651	-85.9264
304.000000	71.612	-84.9597
307.000000	71.584	-84.2404
311.000000	71.549	-83.2892
315.000000	71.516	-82.3456
320.000000	71.478	-81.1731
325.000000	71.441	-80.0038
330.000000	71.406	-78.8438
335.000000	71.374	-77.7080
340.000000	71.346	-76.6001
345.000000	71.321	-75.5132
350.000000	71.293	-74.4370
355.000000	71.262	-73.3695
360.000000	71.233	-72.3204
365.000000	71.206	-71.2944
370.000000	71.181	-70.2855
375.000000	71.155	-69.2890
382.000000	71.115	-67.9106
387.000000	71.086	-66.9293
395.000000	71.044	-65.3484
400.000000	71.024	-64.3524
406.000000	71.005	-63.1566
412.000000	70.987	-61.9728
418.000000	70.966	-60.8109
425.000000	70.939	-59.4849
431.000000	70.915	-58.3805
437.000000	70.890	-57.3182
444.000000	70.862	-56.1406
450.000000	70.841	-55.1771
455.000000	70.824	-54.3941
462.000000	70.800	-53.3131
468.000000	70.780	-52.3932
475.000000	70.760	-51.3241
482.000000	70.744	-50.2572
487.000000	70.733	-49.4916
494.000000	70.718	-48.4088
500.000000	70.705	-47.4738
508.000000	70.687	-46.2326
515.000000	70.671	-45.1642
522.000000	70.655	-44.1130
530.000000	70.638	-42.9192
538.000000	70.623	-41.7269
545.000000	70.609	-40.6940
552.000000	70.597	-39.6779
560.000000	70.583	-38.5296
570.000000	70.568	-37.0981
580.000000	70.556	-35.6756
590.000000	70.546	-34.2589
600.000000	70.537	-32.8233
608.000000	70.529	-31.6611
615.000000	70.523	-30.6486
622.000000	70.518	-29.6524
630.000000	70.513	-28.5374
640.000000	70.506	-27.1661
650.000000	70.500	-25.8001
660.000000	70.498	-24.4236
670.000000	70.503	-23.0277
680.000000	70.511	-21.6174
690.000000	70.520	-20.2095
700.000000	70.530	-18.8258
710.000000	70.541	-17.4918
720.000000	70.555	-16.2258
730.000000	70.569	-15.0330
740.000000	70.584	-13.9104
750.000000	70.601	-12.8483
762.000000	70.622	-11.6394
775.000000	70.648	-10.3904
788.000000	70.679	-9.1835
800.000000	70.712	-8.0940
812.000000	70.747	-6.9989
825.000000	70.791	-5.7797
838.000000	70.842	-4.5372
850.000000	70.895	-3.3894
862.000000	70.952	-2.2619
875.000000	71.018	-1.0940
885.000000	71.071	-0.2493
900.000000	71.155	0.9220
912.000000	71.225	1.7754
925.000000	71.301	2.6207
938.000000	71.381	3.3903
950.000000	71.461	4.0334
962.000000	71.548	4.6130
975.000000	71.647	5.1698
988.000000	71.751	5.6405
1000.000000	71.845	5.9827
1015.000000	71.957	6.2897
1030.000000	72.063	6.5124
1044.000000	72.165	6.7080
1060.000000	72.292	6.9708
1075.000000	72.419	7.2542
1090.000000	72.542	7.5361
1106.000000	72.664	7.8034
1120.000000	72.770	8.0042
1138.000000	72.913	8.2114
1150.000000	73.011	8.3039
1172.000000	73.186	8.3238
1180.000000	73.247	8.2690
1206.000000	73.446	7.8571
1220.000000	73.558	7.5205
1241.000000	73.736	6.9272
1250.000000	73.816	6.6505
1265.000000	73.956	6.1644
1280.000000	74.100	5.6469
1315.000000	74.407	4.2933
1320.000000	74.442	4.0806
1340.000000	74.555	3.1938
1360.000000	74.619	2.2745
1380.000000	74.649	1.3271
1400.000000	74.664	0.3411
1430.000000	74.698	-1.2003
1450.000000	74.747	-2.2364
1475.000000	74.841	-3.4723
1500.000000	74.962	-4.6048
1525.000000	75.102	-5.6624
1550.000000	75.250	-6.7321
1575.000000	75.394	-7.9102
1600.000000	75.528	-9.2172
1625.000000	75.659	-10.5864
1650.000000	75.794	-11.9440
1675.000000	75.933	-13.2790
1700.000000	76.072	-14.6620
1725.000000	76.207	-16.1793
1750.000000	76.336	-17.8565
1775.000000	76.462	-19.6674
1800.000000	76.589	-21.5788
1825.000000	76.717	-23.5785
1850.000000	76.844	-25.6733
1875.000000	76.971	-27.8696
1900.000000	77.098	-30.1706
1925.000000	77.221	-32.5817
1950.000000	77.341	-35.0904
1975.000000	77.460	-37.6637
2000.000000	77.582	-40.2753
2030.000000	77.730	-43.4685
2060.000000	77.875	-46.7812
2090.000000	78.016	-50.2532
2120.000000	78.151	-53.8603
2140.000000	78.239	-56.2987
2180.000000	78.415	-61.1317
2200.000000	78.505	-63.4934
2240.000000	78.682	-68.0900
2270.000000	78.812	-71.4486
2300.000000	78.940	-74.7572
2330.000000	79.064	-78.0343
2360.000000	79.182	-81.2841
2400.000000	79.336	-85.5812
2430.000000	79.448	-88.8252
2470.000000	79.589	-93.3038
2500.000000	79.686	-96.8361
2540.000000	79.807	-101.8099
2580.000000	79.920	-107.1417
2620.000000	80.018	-112.9091
2650.000000	80.081	-117.5170
2690.000000	80.154	-123.9552
2720.000000	80.200	-128.9210
2760.000000	80.254	-135.5931
2800.000000	80.303	-142.2326
2850.000000	80.355	-150.5269
2900.000000	80.387	-159.0000
2950.000000	80.395	-167.7258
3000.000000	80.386	-176.5987
3040.000000	80.370	176.2655
3070.000000	80.352	170.8904
3110.000000	80.320	163.6729
3150.000000	80.282	156.3744
3200.000000	80.225	147.0970
3250.000000	80.156	137.6548
3300.000000	80.079	128.1248
3350.000000	79.995	118.5463
3400.000000	79.898	108.9041
3450.000000	79.792	99.1788
3500.000000	79.676	89.3325
3550.000000	79.549	79.3475
3600.000000	79.418	69.2932
3650.000000	79.294	59.2655
3700.000000	79.182	49.2784
3750.000000	79.079	39.2800
3820.000000	78.950	25.2183
3870.000000	78.868	15.1525
3950.000000	78.741	-1.0027
4000.000000	78.656	-11.1296
4060.000000	78.543	-23.1685
4120.000000	78.419	-34.8525
4180.000000	78.288	-46.0365
4250.000000	78.128	-58.6284
4310.000000	77.979	-69.3953
4370.000000	77.823	-80.3514
4440.000000	77.650	-93.3958
4500.000000	77.516	-104.7863
4550.000000	77.416	-114.4336
4620.000000	77.289	-128.1735
4680.000000	77.186	-140.1163
4750.000000	77.066	-154.1069
4820.000000	76.943	-167.9496
4870.000000	76.854	-177.6300
4940.000000	76.729	169.1952
5000.000000	76.622	158.2571
5080.000000	76.480	144.0508
5150.000000	76.353	131.7513
5220.000000	76.223	119.3336
5300.000000	76.066	104.7061
5380.000000	75.893	89.4420
5450.000000	75.728	75.6688
5520.000000	75.560	61.7667
5600.000000	75.374	46.0132
5700.000000	75.149	26.6412
5800.000000	74.930	7.4000
5900.000000	74.720	-11.9977
6000.000000	74.521	-31.8041
6080.000000	74.359	-48.1278
6150.000000	74.211	-62.7820
6220.000000	74.056	-77.6761
6300.000000	73.875	-94.8195
6400.000000	73.650	-116.2866
6500.000000	73.431	-137.8297
6600.000000	73.220	-159.5698
6700.000000	73.017	178.4164
6800.000000	72.828	156.3025
6900.000000	72.665	134.4246
7000.000000	72.534	112.7578
7100.000000	72.429	90.9189
7200.000000	72.356	68.6802
7300.000000	72.323	46.0728
7400.000000	72.333	23.2172
7500.000000	72.391	0.2156
7620.000000	72.520	-27.5400
7750.000000	72.702	-57.8699
7880.000000	72.878	-88.5913
8000.000000	73.013	-117.3413
8120.000000	73.132	-146.5251
8250.000000	73.272	-178.6965
8380.000000	73.471	148.6074
8500.000000	73.734	118.0186
8620.000000	74.080	86.9849
8750.000000	74.524	52.5596
8850.000000	74.884	25.1956
9000.000000	75.381	-17.7697
9120.000000	75.668	-53.9795
9250.000000	75.786	-94.8474
9380.000000	75.653	-136.5724
9500.000000	75.317	-174.7949
9620.000000	74.841	147.9600
9750.000000	74.294	108.8164
9880.000000	73.850	70.4619
10000.000000	73.588	35.1050
10150.000000	73.397	-9.8363
10300.000000	73.197	-55.8748
10440.000000	72.879	-99.4055
10600.000000	72.314	-148.9417
10750.000000	71.619	165.3047
10900.000000	70.825	120.3149
11060.000000	69.947	73.2393
11200.000000	69.206	32.7439
11380.000000	68.329	-19.0127
11500.000000	67.799	-53.8608
11720.000000	66.950	-119.2065
11800.000000	66.685	-143.4192
12060.000000	65.985	136.5596
12200.000000	65.698	92.6396
12410.000000	65.369	25.6748
12500.000000	65.261	-3.3696
12650.000000	65.119	-52.1194
12800.000000	65.010	-101.2117
13150.000000	64.795	143.0054
13200.000000	64.765	126.3357
13400.000000	64.666	59.4521
13600.000000	64.656	-7.6790
13800.000000	64.794	-75.0527
14000.000000	65.098	-142.7085
14300.000000	65.813	114.8359
14500.000000	66.406	45.6396
14750.000000	67.189	-42.2012
15000.000000	67.888	-132.4412
15250.000000	68.363	134.4189
15500.000000	68.525	38.6841
15750.000000	68.371	-59.3552
16000.000000	67.987	-159.1091
16250.000000	67.505	100.4338
16500.000000	67.013	-0.3740
16750.000000	66.546	-101.9121
17000.000000	66.106	155.1235
17250.000000	65.671	50.4380
17500.000000	65.207	-55.3916
17750.000000	64.682	-161.4941
18000.000000	64.057	92.7358
18250.000000	63.301	-12.1758
18500.000000	62.394	-115.7368
18750.000000	61.332	142.4922
19000.000000	60.140	43.1943
19250.000000	58.887	-51.7705
19500.000000	57.695	-138.0977
19750.000000	56.716	152.4634
