* Measurement data measured by REW V5.31.3
* Source: Microphone (4- USB Audio Device), MICROPHONE (Master Volume), L, volume: 0.250
* Format: 256k Log Swept Sine, 1 sweep at -12.0 dBFS with no timing reference
* Dated: 07-Aug-2024 19:30:43
* REW Settings:
*  C-weighting compensation: Off
*  Target level: 75.0 dB
* Note: 
* Measurement: Oladance OWS Sport BB L
* Smoothing: 1/12 octave
* Frequency Step: 1/48 octave
* Start Frequency: 20.300 Hz
*
* Freq(Hz)	SPL(dB)	Phase(degrees)
20.299999	47.417	-6.1039
20.600000	47.205	-22.1352
20.900000	46.889	-47.5146
21.200001	46.751	-85.6239
21.400000	46.905	-115.0822
21.799999	47.617	-158.4835
22.000000	47.906	-171.4551
22.400000	47.812	173.2501
22.700001	47.056	170.3504
23.000000	46.150	179.9495
23.299999	46.095	-152.6977
23.600000	47.278	-128.8156
24.000000	49.200	-121.6756
24.299999	50.050	-124.8172
24.700001	50.129	-133.4280
25.000000	49.421	-141.8717
25.400000	47.543	-155.8025
25.799999	44.797	-176.2926
26.200001	41.637	139.3444
26.500000	39.375	92.3322
26.900000	36.909	72.0191
27.200001	35.856	83.2834
27.600000	36.053	113.7053
28.000000	37.391	141.3192
28.500000	39.872	-166.2913
29.000000	43.005	-128.7673
29.500000	45.412	-121.1542
30.000000	46.249	-121.6413
30.400000	45.710	-122.7881
30.700001	44.709	-121.9486
31.100000	43.034	-105.8131
31.500000	41.809	-12.5794
32.000000	41.189	13.4762
32.500000	40.536	8.7842
33.000000	40.529	-40.1142
33.500000	42.498	-109.6844
34.000000	44.993	-120.4825
34.500000	46.604	-124.4029
35.000000	46.972	-126.2672
35.500000	46.307	-120.8720
36.000000	45.533	-88.9609
36.500000	45.516	-51.7568
37.000000	45.674	-48.0798
37.500000	45.345	-61.8174
38.200001	44.757	-176.1033
38.700001	45.062	108.1055
39.500000	47.564	63.3426
40.000000	49.935	56.3262
40.599998	52.772	66.8990
41.200001	55.518	102.7469
41.799999	58.142	138.5975
42.500000	60.293	152.8921
43.099998	60.714	156.1021
43.700001	59.715	158.4006
44.400002	57.451	164.1692
45.000000	56.069	151.1567
45.500000	56.445	64.1223
46.200001	59.032	7.6036
46.799999	62.079	-21.7992
47.500000	65.760	-15.0111
48.200001	68.931	-5.3624
48.700001	70.541	-4.7986
49.400002	71.499	-8.3934
50.000000	70.991	-12.1992
50.799999	68.640	-13.9979
51.500000	65.509	-9.4339
52.200001	61.870	-10.7092
53.000000	57.597	-49.6555
53.799999	53.676	-58.7242
54.500000	51.061	-61.8707
55.200001	50.087	-73.9611
56.000000	50.914	-80.9047
57.000000	52.116	-83.1849
58.000000	52.351	-90.6530
59.000000	53.249	-102.4098
60.000000	54.703	-113.0045
60.799999	55.608	-119.9003
61.500000	56.316	-124.4074
62.200001	57.096	-126.5818
63.000000	58.038	-126.3008
64.000000	59.033	-124.8609
65.000000	59.718	-125.4220
66.000000	60.283	-128.4321
67.000000	60.914	-132.7078
68.000000	61.658	-137.7047
69.000000	62.499	-143.2185
70.000000	63.329	-148.1964
71.000000	64.040	-151.8162
72.000000	64.702	-155.0101
73.000000	65.489	-159.3940
74.000000	66.441	-165.1492
75.000000	67.403	-171.2594
76.199997	68.383	-178.1903
77.500000	69.290	174.7545
78.800003	70.183	168.0118
80.000000	70.995	161.8606
81.199997	71.740	155.4763
82.500000	72.503	148.7322
83.800003	73.273	142.4708
85.000000	73.965	136.8240
86.199997	74.671	131.1002
87.500000	75.445	124.8806
88.500000	76.007	120.1984
90.000000	76.778	113.3877
91.199997	77.363	108.0729
92.500000	77.962	102.4016
93.800003	78.519	96.8090
95.000000	79.001	91.6487
96.199997	79.466	86.4603
97.500000	79.950	80.8457
98.800003	80.404	75.1990
100.000000	80.797	69.8973
101.500000	81.256	63.3628
103.000000	81.668	57.1570
104.400002	82.006	51.5695
106.000000	82.357	45.2828
107.500000	82.673	39.4630
109.000000	82.982	33.8755
110.599998	83.288	28.2251
112.000000	83.522	23.4659
113.800003	83.781	17.5044
115.000000	83.940	13.5978
117.199997	84.212	6.5514
118.000000	84.306	4.0288
120.599998	84.591	-4.0854
122.000000	84.729	-8.4690
124.099998	84.927	-14.9662
125.000000	85.015	-17.6908
126.500000	85.168	-22.1284
128.000000	85.332	-26.4317
131.500000	85.693	-36.0543
132.000000	85.735	-37.4018
134.000000	85.885	-42.7771
136.000000	86.024	-48.1399
138.000000	86.160	-53.4402
140.000000	86.284	-58.5910
143.000000	86.474	-65.9993
145.000000	86.601	-70.6991
147.500000	86.729	-76.3038
150.000000	86.826	-81.7456
152.500000	86.915	-87.0907
155.000000	87.004	-92.3231
157.500000	87.084	-97.4326
160.000000	87.141	-102.3985
162.500000	87.176	-107.1862
165.000000	87.198	-111.7974
167.500000	87.203	-116.2785
170.000000	87.182	-120.6122
172.500000	87.136	-124.7617
175.000000	87.062	-128.7378
177.500000	86.959	-132.5045
180.000000	86.830	-136.0610
182.500000	86.683	-139.4364
185.000000	86.522	-142.6318
187.500000	86.350	-145.6213
190.000000	86.167	-148.4073
192.500000	85.972	-151.0286
195.000000	85.765	-153.4696
197.500000	85.546	-155.6536
200.000000	85.323	-157.5762
203.000000	85.054	-159.6210
206.000000	84.794	-161.4718
209.000000	84.547	-163.2401
212.000000	84.304	-164.8828
214.000000	84.141	-165.7893
218.000000	83.808	-167.2190
220.000000	83.643	-167.8655
224.000000	83.343	-169.0828
227.000000	83.141	-169.8817
230.000000	82.951	-170.5090
233.000000	82.779	-170.9387
236.000000	82.629	-171.2542
240.000000	82.460	-171.6310
243.000000	82.350	-171.8046
247.000000	82.231	-171.7351
250.000000	82.174	-171.4634
254.000000	82.139	-170.9751
258.000000	82.143	-170.5447
262.000000	82.185	-170.3130
265.000000	82.238	-170.2383
269.000000	82.333	-170.1394
272.000000	82.422	-170.0693
276.000000	82.556	-170.1011
280.000000	82.696	-170.3287
285.000000	82.870	-170.7288
290.000000	83.044	-171.1095
295.000000	83.215	-171.5911
300.000000	83.381	-172.2235
304.000000	83.516	-172.7786
307.000000	83.620	-173.2278
311.000000	83.765	-173.8936
315.000000	83.913	-174.6294
320.000000	84.087	-175.6123
325.000000	84.226	-176.6018
330.000000	84.337	-177.5376
335.000000	84.450	-178.3964
340.000000	84.581	-179.1653
345.000000	84.713	-179.8876
350.000000	84.842	179.4252
355.000000	84.977	178.7900
360.000000	85.113	178.1805
365.000000	85.246	177.5198
370.000000	85.370	176.7705
375.000000	85.483	175.9380
382.000000	85.625	174.4943
387.000000	85.699	173.2939
395.000000	85.700	171.4785
400.000000	85.616	170.7145
406.000000	85.469	170.6384
412.000000	85.368	171.6267
418.000000	85.413	173.1877
425.000000	85.665	174.6686
431.000000	85.960	174.9585
437.000000	86.221	174.3125
444.000000	86.423	172.9609
450.000000	86.512	171.8500
455.000000	86.547	171.1753
462.000000	86.576	170.7100
468.000000	86.608	170.6440
475.000000	86.666	170.7418
482.000000	86.749	170.9214
487.000000	86.822	171.0609
494.000000	86.945	171.2429
500.000000	87.068	171.3497
508.000000	87.241	171.3386
515.000000	87.392	171.1965
522.000000	87.548	171.0118
530.000000	87.736	170.7676
538.000000	87.920	170.4624
545.000000	88.062	170.0969
552.000000	88.181	169.6421
560.000000	88.289	169.1194
570.000000	88.392	168.6135
580.000000	88.477	168.2526
590.000000	88.562	167.9875
600.000000	88.651	167.7797
608.000000	88.727	167.5925
615.000000	88.793	167.3989
622.000000	88.849	167.1897
630.000000	88.900	166.9539
640.000000	88.959	166.6660
650.000000	89.024	166.3610
660.000000	89.086	166.0098
670.000000	89.132	165.5981
680.000000	89.152	165.1984
690.000000	89.166	164.8608
700.000000	89.190	164.6285
710.000000	89.220	164.5093
720.000000	89.245	164.4043
730.000000	89.261	164.2454
740.000000	89.263	164.0492
750.000000	89.252	163.9004
762.000000	89.226	163.9034
775.000000	89.188	164.1604
788.000000	89.157	164.5760
800.000000	89.135	164.9628
812.000000	89.102	165.2520
825.000000	89.043	165.4749
838.000000	88.952	165.6085
850.000000	88.832	165.6848
862.000000	88.675	165.8281
875.000000	88.474	166.2258
885.000000	88.303	166.7664
900.000000	88.035	167.9302
912.000000	87.828	169.0972
925.000000	87.622	170.4871
938.000000	87.432	171.8953
950.000000	87.273	173.1733
962.000000	87.132	174.3748
975.000000	86.984	175.5415
988.000000	86.821	176.6554
1000.000000	86.656	177.7637
1015.000000	86.437	179.3334
1030.000000	86.209	-178.8687
1044.000000	85.986	-177.0288
1060.000000	85.706	-174.7390
1075.000000	85.409	-172.2094
1090.000000	85.085	-169.0238
1106.000000	84.739	-164.6614
1120.000000	84.478	-160.0369
1138.000000	84.259	-153.1437
1150.000000	84.213	-148.1255
1172.000000	84.369	-138.6320
1180.000000	84.500	-135.2356
1206.000000	85.151	-124.9972
1220.000000	85.616	-120.1539
1241.000000	86.433	-114.0283
1250.000000	86.812	-111.8903
1265.000000	87.440	-108.9685
1280.000000	88.026	-106.6501
1315.000000	89.204	-101.9456
1320.000000	89.365	-101.2726
1340.000000	90.008	-98.6908
1360.000000	90.633	-96.3737
1380.000000	91.233	-94.0546
1400.000000	91.849	-91.5181
1430.000000	92.863	-87.8309
1450.000000	93.569	-85.9251
1475.000000	94.437	-84.2172
1500.000000	95.299	-83.0148
1525.000000	96.159	-82.2622
1550.000000	96.974	-81.9503
1575.000000	97.721	-81.9243
1600.000000	98.409	-82.0829
1625.000000	99.057	-82.4072
1650.000000	99.681	-82.9007
1675.000000	100.287	-83.5827
1700.000000	100.887	-84.5107
1725.000000	101.487	-85.7323
1750.000000	102.086	-87.2601
1775.000000	102.675	-89.1954
1800.000000	103.229	-91.6355
1825.000000	103.722	-94.5121
1850.000000	104.144	-97.6968
1875.000000	104.492	-101.0905
1900.000000	104.766	-104.5691
1925.000000	104.965	-108.0337
1950.000000	105.085	-111.4109
1975.000000	105.124	-114.5964
2000.000000	105.097	-117.4080
2030.000000	105.017	-120.0692
2060.000000	104.935	-121.9553
2090.000000	104.883	-123.2341
2120.000000	104.881	-124.0618
2140.000000	104.910	-124.4138
2180.000000	105.040	-124.7400
2200.000000	105.140	-124.7881
2240.000000	105.410	-124.9327
2270.000000	105.671	-125.2449
2300.000000	105.962	-125.7827
2330.000000	106.264	-126.5244
2360.000000	106.560	-127.4563
2400.000000	106.934	-129.0085
2430.000000	107.198	-130.3716
2470.000000	107.529	-132.3105
2500.000000	107.767	-133.8062
2540.000000	108.075	-135.8516
2580.000000	108.371	-138.0273
2620.000000	108.626	-140.5767
2650.000000	108.756	-142.8630
2690.000000	108.815	-146.3457
2720.000000	108.775	-149.0817
2760.000000	108.638	-152.5491
2800.000000	108.447	-155.7151
2850.000000	108.121	-159.3826
2900.000000	107.653	-162.2383
2950.000000	107.109	-163.3197
3000.000000	106.664	-162.4736
3040.000000	106.447	-160.8544
3070.000000	106.366	-159.3555
3110.000000	106.342	-157.2366
3150.000000	106.388	-155.2266
3200.000000	106.522	-153.1278
3250.000000	106.740	-151.7097
3300.000000	107.019	-151.2593
3350.000000	107.295	-151.9207
3400.000000	107.537	-153.4731
3450.000000	107.744	-155.6111
3500.000000	107.920	-158.2451
3550.000000	108.064	-161.3354
3600.000000	108.183	-164.7087
3650.000000	108.279	-168.2314
3700.000000	108.340	-171.8921
3750.000000	108.358	-175.6812
3820.000000	108.325	178.8811
3870.000000	108.263	174.8451
3950.000000	108.050	167.9565
4000.000000	107.821	163.5096
4060.000000	107.455	158.2177
4120.000000	106.996	153.0020
4180.000000	106.442	147.9552
4250.000000	105.652	142.6936
4310.000000	104.856	139.1289
4370.000000	103.983	136.6968
4440.000000	102.907	135.1764
4500.000000	101.946	134.7002
4550.000000	101.130	134.8032
4620.000000	100.008	135.7495
4680.000000	99.094	137.3967
4750.000000	98.104	140.3469
4820.000000	97.215	144.1642
4870.000000	96.649	147.1982
4940.000000	95.963	151.6483
5000.000000	95.473	155.5389
5080.000000	94.953	160.6355
5150.000000	94.615	164.8456
5220.000000	94.377	168.8748
5300.000000	94.285	173.5444
5380.000000	94.500	177.8463
5450.000000	94.944	-179.5286
5520.000000	95.508	-178.3726
5600.000000	96.103	-178.5410
5700.000000	96.540	-179.4998
5800.000000	96.636	-179.4789
5900.000000	96.605	-178.2786
6000.000000	96.611	-176.9934
6080.000000	96.708	-176.4658
6150.000000	96.858	-176.6085
6220.000000	97.033	-177.3741
6300.000000	97.216	-178.9120
6400.000000	97.372	178.4664
6500.000000	97.415	175.3622
6600.000000	97.350	172.1400
6700.000000	97.263	169.0559
6800.000000	97.240	165.8977
6900.000000	97.330	162.0134
7000.000000	97.491	156.1482
7100.000000	97.501	147.1489
7200.000000	96.985	135.5363
7300.000000	95.625	124.3892
7400.000000	93.381	118.6118
7500.000000	90.582	123.8799
7620.000000	87.665	147.6479
7750.000000	86.750	169.9213
7880.000000	87.425	175.9484
8000.000000	88.212	173.6064
8120.000000	88.855	166.6594
8250.000000	89.342	155.3605
8380.000000	89.583	140.7784
8500.000000	89.545	124.5515
8620.000000	89.270	106.0795
8750.000000	88.774	84.2864
8850.000000	88.296	66.7642
9000.000000	87.428	40.3456
9120.000000	86.612	19.9530
9250.000000	85.633	-0.8513
9380.000000	84.570	-20.0846
9500.000000	83.578	-36.4407
9620.000000	82.721	-51.5042
9750.000000	82.147	-66.8439
9880.000000	82.102	-82.1637
10000.000000	82.599	-96.6571
10150.000000	83.939	-114.6613
10300.000000	85.876	-132.2830
10440.000000	87.872	-149.1196
10600.000000	89.925	-170.1161
10750.000000	91.311	167.8909
10900.000000	92.038	144.2524
11060.000000	92.072	118.8145
11200.000000	91.455	97.8646
11380.000000	89.744	74.8323
11500.000000	88.113	63.0178
11720.000000	84.561	49.9309
11800.000000	83.210	47.8792
12060.000000	78.950	51.5225
12200.000000	76.882	60.5752
12410.000000	74.395	82.6967
12500.000000	73.638	94.5447
12650.000000	72.884	115.8606
12800.000000	72.826	136.1006
13150.000000	74.571	167.2434
13200.000000	74.916	170.1605
13400.000000	76.341	178.8508
13600.000000	77.568	-177.4613
13800.000000	78.226	-177.8436
14000.000000	78.140	-179.3992
14300.000000	76.937	-177.0562
14500.000000	75.888	-169.5426
14750.000000	74.725	-155.1432
15000.000000	73.772	-140.9536
15250.000000	72.799	-130.5925
15500.000000	71.585	-120.5378
15750.000000	70.876	-93.1990
16000.000000	72.480	-39.3136
16250.000000	75.681	-19.8131
16500.000000	78.921	-21.3303
16750.000000	81.660	-33.2703
17000.000000	83.597	-53.7114
17250.000000	84.601	-79.7417
17500.000000	84.717	-107.2252
17750.000000	84.128	-132.4468
18000.000000	83.118	-152.6082
18250.000000	82.007	-166.2194
18500.000000	81.125	-174.1918
18750.000000	80.702	-178.9255
19000.000000	80.649	177.0024
19250.000000	80.668	171.9279
19500.000000	80.508	165.5020
19750.000000	80.122	158.7059
20000.000000	79.769	154.0374
