* Measurement data measured by REW V5.20.13
* Source: Microphone (2- USB Audio Device), MICROPHONE (Master Volume), L, volume: 0.250. Timing signal peak level -29.7 dBFS, measurement signal peak level -29.6 dBFS
* Format: 256k Log Swept Sine, 1 sweep at -12.0 dBFS using an acoustic timing reference
* Dated: 03-Jul-2023 11:43:58
* REW Settings:
*  C-weighting compensation: Off
*  Target level: 75.0 dB
* Note: 
* Measurement: OneOdio OpenRock Pro R
* Smoothing: 1/12 octave
* Frequency Step: 1/48 octave
* Start Frequency: 20.000 Hz
*
* Freq(Hz)	SPL(dB)	Phase(degrees)
20.000000	59.497	161.4819
20.299999	59.174	173.3032
20.600000	58.812	-174.3303
20.900000	58.467	-161.3032
21.200001	58.212	-147.7886
21.400000	58.123	-138.7750
21.799999	58.113	-121.3564
22.000000	58.156	-113.2180
22.400000	58.209	-98.3130
22.700001	58.122	-87.8912
23.000000	57.893	-77.3258
23.299999	57.578	-66.0861
23.600000	57.267	-54.2283
24.000000	56.956	-38.1454
24.299999	56.785	-26.4845
24.700001	56.524	-11.5137
25.000000	56.251	-0.2200
25.400000	55.836	15.4548
25.799999	55.485	31.4370
26.200001	55.206	46.8381
26.500000	54.956	57.9944
26.900000	54.474	73.1855
27.200001	54.023	85.5624
27.600000	53.464	103.6655
28.000000	53.198	122.5117
28.500000	53.310	144.3984
29.000000	53.471	163.0831
29.500000	53.359	-179.7435
30.000000	53.074	-161.9095
30.400000	52.931	-147.3942
30.700001	52.911	-137.1062
31.100000	52.904	-124.9720
31.500000	52.771	-114.6810
32.000000	52.284	-103.6121
32.500000	51.425	-94.0748
33.000000	50.234	-87.3522
33.500000	48.696	-86.2006
34.000000	46.789	-93.9517
34.500000	44.831	-111.6932
35.000000	44.012	-135.3685
35.500000	45.306	-156.5864
36.000000	47.549	-169.5334
36.500000	49.637	-174.4292
37.000000	51.271	-174.6688
37.500000	52.480	-172.8828
38.200001	53.644	-169.3112
38.700001	54.200	-166.9719
39.500000	54.698	-164.9420
40.000000	54.825	-164.8330
40.599998	54.925	-165.7997
41.200001	55.097	-168.1267
41.799999	55.389	-171.7526
42.500000	55.877	-176.8420
43.099998	56.405	178.8003
43.700001	56.966	174.7438
44.400002	57.552	170.5930
45.000000	57.948	167.7856
45.500000	58.221	166.0427
46.200001	58.566	164.2394
46.799999	58.857	162.8782
47.500000	59.211	161.1870
48.200001	59.619	159.3177
48.700001	59.958	157.8223
49.400002	60.478	155.4039
50.000000	60.919	153.0852
50.799999	61.448	150.0227
51.500000	61.861	147.7252
52.200001	62.260	145.8555
53.000000	62.722	143.9099
53.799999	63.161	141.6567
54.500000	63.479	139.3822
55.200001	63.746	137.1677
56.000000	64.057	134.9718
57.000000	64.499	132.4167
58.000000	64.936	129.9939
59.000000	65.391	128.0515
60.000000	65.884	126.0527
60.799999	66.245	124.0962
61.500000	66.525	122.2722
62.200001	66.794	120.4684
63.000000	67.107	118.4363
64.000000	67.511	115.9414
65.000000	67.920	113.6206
66.000000	68.330	111.5493
67.000000	68.726	109.6823
68.000000	69.101	107.9407
69.000000	69.458	106.1926
70.000000	69.795	104.3265
71.000000	70.117	102.3961
72.000000	70.443	100.4939
73.000000	70.778	98.6216
74.000000	71.111	96.7904
75.000000	71.436	95.0568
76.199997	71.822	93.1121
77.500000	72.238	91.0442
78.800003	72.641	88.9656
80.000000	73.004	87.1224
81.199997	73.365	85.3545
82.500000	73.749	83.4539
83.800003	74.119	81.5388
85.000000	74.450	79.7372
86.199997	74.776	77.9019
87.500000	75.127	75.8958
88.500000	75.395	74.3633
90.000000	75.793	72.0957
91.199997	76.101	70.3036
92.500000	76.425	68.3965
93.800003	76.742	66.4844
95.000000	77.026	64.6805
96.199997	77.297	62.8624
97.500000	77.579	60.9098
98.800003	77.850	58.9993
100.000000	78.097	57.2913
101.500000	78.409	55.2208
103.000000	78.723	53.1617
104.400002	79.007	51.2321
106.000000	79.313	49.0582
107.500000	79.586	47.0400
109.000000	79.842	45.0116
110.599998	80.096	42.8585
112.000000	80.306	41.0217
113.800003	80.566	38.7437
115.000000	80.734	37.2638
117.199997	81.035	34.5734
118.000000	81.141	33.5919
120.599998	81.468	30.4237
122.000000	81.634	28.7676
124.099998	81.873	26.3738
125.000000	81.970	25.3818
126.500000	82.126	23.7783
128.000000	82.275	22.2373
131.500000	82.606	18.7760
132.000000	82.651	18.2897
134.000000	82.826	16.3705
136.000000	82.987	14.5077
138.000000	83.133	12.7218
140.000000	83.265	11.0070
143.000000	83.446	8.5098
145.000000	83.553	6.9039
147.500000	83.675	5.0084
150.000000	83.789	3.2220
152.500000	83.899	1.5016
155.000000	84.000	-0.1484
157.500000	84.092	-1.7081
160.000000	84.176	-3.2142
162.500000	84.253	-4.6859
165.000000	84.329	-6.0988
167.500000	84.402	-7.4120
170.000000	84.467	-8.6102
172.500000	84.523	-9.7219
175.000000	84.568	-10.7888
177.500000	84.602	-11.8308
180.000000	84.625	-12.8440
182.500000	84.635	-13.8140
185.000000	84.629	-14.7188
187.500000	84.608	-15.5526
190.000000	84.582	-16.3286
192.500000	84.561	-17.0555
195.000000	84.552	-17.7271
197.500000	84.556	-18.3353
200.000000	84.567	-18.8850
203.000000	84.586	-19.4910
206.000000	84.607	-20.0522
209.000000	84.629	-20.5640
212.000000	84.649	-21.0239
214.000000	84.659	-21.3022
218.000000	84.666	-21.7860
220.000000	84.664	-21.9921
224.000000	84.651	-22.3324
227.000000	84.638	-22.5035
230.000000	84.624	-22.5988
233.000000	84.608	-22.6420
236.000000	84.589	-22.6493
240.000000	84.558	-22.5883
243.000000	84.532	-22.4680
247.000000	84.499	-22.1990
250.000000	84.477	-21.9382
254.000000	84.451	-21.5580
258.000000	84.430	-21.1580
262.000000	84.411	-20.7201
265.000000	84.397	-20.3560
269.000000	84.373	-19.8333
272.000000	84.350	-19.4249
276.000000	84.315	-18.8628
280.000000	84.279	-18.2762
285.000000	84.236	-17.4969
290.000000	84.195	-16.6541
295.000000	84.158	-15.7603
300.000000	84.123	-14.8112
304.000000	84.095	-13.9945
307.000000	84.075	-13.3499
311.000000	84.048	-12.4594
315.000000	84.021	-11.5372
320.000000	83.989	-10.3403
325.000000	83.958	-9.0875
330.000000	83.926	-7.7753
335.000000	83.893	-6.4142
340.000000	83.861	-4.9968
345.000000	83.831	-3.5406
350.000000	83.805	-2.0756
355.000000	83.786	-0.6006
360.000000	83.778	0.8846
365.000000	83.778	2.3593
370.000000	83.779	3.8242
375.000000	83.771	5.3104
382.000000	83.744	7.4454
387.000000	83.722	9.0190
395.000000	83.696	11.6707
400.000000	83.688	13.3694
406.000000	83.679	15.3953
412.000000	83.666	17.3955
418.000000	83.651	19.3840
425.000000	83.633	21.7067
431.000000	83.611	23.6879
437.000000	83.583	25.6589
444.000000	83.555	27.9662
450.000000	83.540	29.9720
455.000000	83.529	31.6818
462.000000	83.510	34.1501
468.000000	83.489	36.3179
475.000000	83.469	38.8850
482.000000	83.455	41.5057
487.000000	83.447	43.4189
494.000000	83.436	46.1339
500.000000	83.427	48.4631
508.000000	83.418	51.5557
515.000000	83.411	54.2635
522.000000	83.404	56.9780
530.000000	83.395	60.0674
538.000000	83.384	63.1202
545.000000	83.372	65.7690
552.000000	83.361	68.4166
560.000000	83.350	71.4495
570.000000	83.334	75.2454
580.000000	83.321	79.0587
590.000000	83.307	82.9382
600.000000	83.286	86.9136
608.000000	83.266	90.1709
615.000000	83.251	93.0710
622.000000	83.239	96.0005
630.000000	83.230	99.3773
640.000000	83.219	103.6606
650.000000	83.212	108.0228
660.000000	83.208	112.4490
670.000000	83.209	116.9021
680.000000	83.212	121.3530
690.000000	83.210	125.8235
700.000000	83.203	130.3140
710.000000	83.192	134.7655
720.000000	83.181	139.1508
730.000000	83.173	143.5338
740.000000	83.168	147.9758
750.000000	83.166	152.4867
762.000000	83.169	157.9535
775.000000	83.176	163.8912
788.000000	83.177	169.8190
800.000000	83.172	175.2837
812.000000	83.167	-179.2427
825.000000	83.159	-173.2859
838.000000	83.150	-167.3186
850.000000	83.141	-161.8225
862.000000	83.131	-156.3213
875.000000	83.120	-150.3143
885.000000	83.112	-145.6533
900.000000	83.098	-138.6252
912.000000	83.092	-132.9974
925.000000	83.084	-126.8708
938.000000	83.069	-120.6998
950.000000	83.052	-115.0052
962.000000	83.032	-109.3401
975.000000	83.012	-103.2401
988.000000	82.998	-97.1799
1000.000000	82.988	-91.6213
1015.000000	82.968	-84.6971
1030.000000	82.939	-77.7283
1044.000000	82.913	-71.1510
1060.000000	82.892	-63.5677
1075.000000	82.873	-56.3721
1090.000000	82.854	-49.0706
1106.000000	82.843	-41.2091
1120.000000	82.839	-34.2915
1138.000000	82.833	-25.3340
1150.000000	82.828	-19.3282
1172.000000	82.824	-8.3120
1180.000000	82.827	-4.3257
1206.000000	82.847	8.3492
1220.000000	82.855	14.8490
1241.000000	82.843	24.0763
1250.000000	82.830	27.8455
1265.000000	82.806	33.9034
1280.000000	82.784	39.7620
1315.000000	82.721	53.2225
1320.000000	82.704	55.1357
1340.000000	82.604	62.7520
1360.000000	82.438	70.3507
1380.000000	82.209	78.0251
1400.000000	81.940	85.8652
1430.000000	81.529	97.8861
1450.000000	81.266	105.9883
1475.000000	80.949	116.2844
1500.000000	80.645	126.9398
1525.000000	80.350	138.1760
1550.000000	80.081	150.1759
1575.000000	79.877	163.0382
1600.000000	79.795	176.7839
1625.000000	79.905	-168.7529
1650.000000	80.263	-153.9810
1675.000000	80.872	-139.4869
1700.000000	81.675	-125.8368
1725.000000	82.598	-113.3564
1750.000000	83.566	-102.1306
1775.000000	84.514	-92.1230
1800.000000	85.400	-83.2156
1825.000000	86.200	-75.1754
1850.000000	86.896	-67.7140
1875.000000	87.477	-60.5474
1900.000000	87.952	-53.4454
1925.000000	88.337	-46.2920
1950.000000	88.646	-39.0500
1975.000000	88.900	-31.6586
2000.000000	89.127	-24.0339
2030.000000	89.396	-14.5400
2060.000000	89.679	-4.7234
2090.000000	89.982	5.3011
2120.000000	90.303	15.3373
2140.000000	90.523	21.9170
2180.000000	90.964	34.5585
2200.000000	91.179	40.5662
2240.000000	91.583	51.9557
2270.000000	91.860	60.0507
2300.000000	92.117	67.9138
2330.000000	92.348	75.6685
2360.000000	92.549	83.3977
2400.000000	92.765	93.7375
2430.000000	92.890	101.5598
2470.000000	93.021	112.1255
2500.000000	93.105	120.1865
2540.000000	93.211	131.1265
2580.000000	93.308	142.1965
2620.000000	93.388	153.3096
2650.000000	93.434	161.6594
2690.000000	93.481	172.8169
2720.000000	93.512	-178.8101
2760.000000	93.545	-167.7104
2800.000000	93.558	-156.7651
2850.000000	93.543	-143.1997
2900.000000	93.506	-129.4741
2950.000000	93.457	-115.4253
3000.000000	93.381	-101.2095
3040.000000	93.284	-89.8823
3070.000000	93.189	-81.4561
3110.000000	93.037	-70.3013
3150.000000	92.869	-59.1724
3200.000000	92.657	-45.1782
3250.000000	92.463	-31.0027
3300.000000	92.317	-16.5889
3350.000000	92.248	-1.9849
3400.000000	92.269	12.6174
3450.000000	92.362	26.9365
3500.000000	92.485	40.7043
3550.000000	92.592	53.8064
3600.000000	92.649	66.3271
3650.000000	92.641	78.4629
3700.000000	92.572	90.4180
3750.000000	92.452	102.3572
3820.000000	92.218	119.2480
3870.000000	92.017	131.4888
3950.000000	91.656	151.3301
4000.000000	91.417	163.9575
4060.000000	91.132	179.4360
4120.000000	90.850	-164.8167
4180.000000	90.566	-148.9570
4250.000000	90.232	-130.4097
4310.000000	89.950	-114.3955
4370.000000	89.675	-98.1611
4440.000000	89.374	-78.9138
4500.000000	89.144	-62.2036
4550.000000	88.977	-48.1753
4620.000000	88.777	-28.4204
4680.000000	88.628	-11.4160
4750.000000	88.473	8.3821
4820.000000	88.331	27.8997
4870.000000	88.234	41.5718
4940.000000	88.109	60.3823
5000.000000	88.017	76.3254
5080.000000	87.923	97.4463
5150.000000	87.868	115.7881
5220.000000	87.833	134.0037
5300.000000	87.799	154.7539
5380.000000	87.759	175.6667
5450.000000	87.730	-165.6206
5520.000000	87.728	-146.3679
5600.000000	87.769	-123.7910
5700.000000	87.877	-95.1924
5800.000000	88.050	-66.7058
5900.000000	88.296	-38.6106
6000.000000	88.604	-10.9580
6080.000000	88.883	10.9619
6150.000000	89.148	30.1431
6220.000000	89.444	49.4412
6300.000000	89.837	71.6624
6400.000000	90.409	99.3408
6500.000000	91.041	125.9888
6600.000000	91.677	150.4810
6700.000000	92.259	172.4092
6800.000000	92.752	-167.7061
6900.000000	93.121	-149.2817
7000.000000	93.319	-132.0178
7100.000000	93.290	-115.5100
7200.000000	93.003	-99.0022
7300.000000	92.474	-81.6208
7400.000000	91.747	-62.7437
7500.000000	90.873	-42.0283
7620.000000	89.745	-14.6594
7750.000000	88.564	17.4761
7880.000000	87.495	50.9019
8000.000000	86.633	81.9482
8120.000000	85.892	112.7053
8250.000000	85.206	145.5642
8380.000000	84.640	178.2424
8500.000000	84.229	-151.4819
8620.000000	83.925	-120.9741
8750.000000	83.725	-87.4592
8850.000000	83.667	-61.2437
9000.000000	83.728	-21.4192
9120.000000	83.893	10.4226
9250.000000	84.192	44.4871
9380.000000	84.617	77.8438
9500.000000	85.106	107.7207
9620.000000	85.644	136.3616
9750.000000	86.202	165.6655
9880.000000	86.636	-166.9119
10000.000000	86.842	-143.1160
10150.000000	86.745	-114.7842
10300.000000	86.210	-86.7263
10440.000000	85.362	-59.4431
10600.000000	84.133	-26.1250
10750.000000	82.899	7.0420
10900.000000	81.701	41.6343
11060.000000	80.516	79.7827
11200.000000	79.583	113.9307
11380.000000	78.548	158.0767
11500.000000	77.957	-172.8301
11720.000000	77.010	-121.0015
11800.000000	76.689	-102.6328
12060.000000	75.712	-43.1006
12200.000000	75.290	-10.3027
12410.000000	74.987	39.7598
12500.000000	75.031	61.1572
12650.000000	75.389	96.1152
12800.000000	76.120	129.5039
13150.000000	78.836	-164.0830
13200.000000	79.252	-156.4961
13400.000000	80.708	-132.0874
13600.000000	81.567	-117.0562
13800.000000	81.666	-109.1025
14000.000000	81.123	-104.6465
14300.000000	79.672	-98.3818
14500.000000	78.545	-91.2754
14750.000000	77.086	-76.2563
15000.000000	75.584	-53.9419
15250.000000	73.985	-24.4053
15500.000000	72.245	12.1348
15750.000000	70.394	54.1030
16000.000000	68.639	99.2900
16250.000000	67.361	145.7119
16500.000000	66.844	-168.4507
16750.000000	66.899	-124.5439
17000.000000	67.096	-83.4956
17250.000000	67.123	-46.5684
17500.000000	66.796	-16.2949
17750.000000	66.016	-0.2168
18000.000000	64.788	-18.7368
18250.000000	63.263	-109.5557
18500.000000	61.705	48.8887
18750.000000	60.399	89.2285
19000.000000	59.492	45.6729
19250.000000	58.902	-43.0874
19500.000000	58.470	-153.2712
19750.000000	58.093	144.4900
