* Measurement data measured by REW V5.30 beta 1
* Source: Frequency response averaged data
* Format: Averaged data produced from the rms magnitudes of RMS Average 1, RMS Average 1
* Dated: 10-Nov-2023 22:30:47
* REW Settings:
*  C-weighting compensation: Off
*  Target level: 75.0 dB
* Note: 
* Measurement: OneOdio A10 L
* Smoothing: 1/12 octave
* Frequency Step: 1/48 octave
* Start Frequency: 20.300 Hz
*
* Freq(Hz)	SPL(dB)
20.299999	66.922
20.600000	66.381
20.900000	65.665
21.200001	65.219
21.400000	65.205
21.799999	65.702
22.000000	66.044
22.400000	66.623
22.700001	66.874
23.000000	66.954
23.299999	66.875
23.600000	66.646
24.000000	66.120
24.299999	65.591
24.700001	64.852
25.000000	64.454
25.400000	64.426
25.799999	65.042
26.200001	66.036
26.500000	66.819
26.900000	67.725
27.200001	68.249
27.600000	68.764
28.000000	69.179
28.500000	69.723
29.000000	70.261
29.500000	70.566
30.000000	70.491
30.400000	70.228
30.700001	70.043
31.100000	70.035
31.500000	70.429
32.000000	71.232
32.500000	71.859
33.000000	72.053
33.500000	71.963
34.000000	71.950
34.500000	72.197
35.000000	72.523
35.500000	72.706
36.000000	72.775
36.500000	72.924
37.000000	73.200
37.500000	73.438
38.200001	73.467
38.700001	73.354
39.500000	73.187
40.000000	72.948
40.599998	72.396
41.200001	71.991
41.799999	72.385
42.500000	73.517
43.099998	74.277
43.700001	74.547
44.400002	74.392
45.000000	74.144
45.500000	74.003
46.200001	74.004
46.799999	74.216
47.500000	74.606
48.200001	74.892
48.700001	74.903
49.400002	74.661
50.000000	74.418
50.799999	74.477
51.500000	74.956
52.200001	75.580
53.000000	76.175
53.799999	76.541
54.500000	76.751
55.200001	76.981
56.000000	77.288
57.000000	77.515
58.000000	77.396
59.000000	77.061
60.000000	76.760
60.799999	76.631
61.500000	76.575
62.200001	76.558
63.000000	76.620
64.000000	76.862
65.000000	77.210
66.000000	77.494
67.000000	77.600
68.000000	77.593
69.000000	77.626
70.000000	77.721
71.000000	77.767
72.000000	77.688
73.000000	77.522
74.000000	77.388
75.000000	77.389
76.199997	77.527
77.500000	77.743
78.800003	77.972
80.000000	78.057
81.199997	77.961
82.500000	77.764
83.800003	77.586
85.000000	77.482
86.199997	77.490
87.500000	77.597
88.500000	77.682
90.000000	77.782
91.199997	77.878
92.500000	78.026
93.800003	78.169
95.000000	78.239
96.199997	78.256
97.500000	78.269
98.800003	78.305
100.000000	78.362
101.500000	78.481
103.000000	78.633
104.400002	78.775
106.000000	78.949
107.500000	79.112
109.000000	79.253
110.599998	79.397
112.000000	79.532
113.800003	79.726
115.000000	79.859
117.199997	80.074
118.000000	80.142
120.599998	80.350
122.000000	80.452
124.099998	80.594
125.000000	80.651
126.500000	80.748
128.000000	80.853
131.500000	81.150
132.000000	81.198
134.000000	81.380
136.000000	81.539
138.000000	81.689
140.000000	81.845
143.000000	82.116
145.000000	82.306
147.500000	82.508
150.000000	82.708
152.500000	82.918
155.000000	83.096
157.500000	83.238
160.000000	83.385
162.500000	83.552
165.000000	83.715
167.500000	83.869
170.000000	84.024
172.500000	84.179
175.000000	84.327
177.500000	84.468
180.000000	84.610
182.500000	84.759
185.000000	84.913
187.500000	85.063
190.000000	85.212
192.500000	85.367
195.000000	85.541
197.500000	85.737
200.000000	85.944
203.000000	86.192
206.000000	86.404
209.000000	86.563
212.000000	86.665
214.000000	86.695
218.000000	86.658
220.000000	86.605
224.000000	86.465
227.000000	86.335
230.000000	86.170
233.000000	85.980
236.000000	85.798
240.000000	85.612
243.000000	85.501
247.000000	85.344
250.000000	85.206
254.000000	84.993
258.000000	84.759
262.000000	84.512
265.000000	84.324
269.000000	84.080
272.000000	83.914
276.000000	83.719
280.000000	83.543
285.000000	83.348
290.000000	83.218
295.000000	83.167
300.000000	83.180
304.000000	83.223
307.000000	83.272
311.000000	83.365
315.000000	83.491
320.000000	83.686
325.000000	83.917
330.000000	84.187
335.000000	84.486
340.000000	84.787
345.000000	85.069
350.000000	85.328
355.000000	85.563
360.000000	85.774
365.000000	85.957
370.000000	86.107
375.000000	86.223
382.000000	86.346
387.000000	86.420
395.000000	86.526
400.000000	86.580
406.000000	86.620
412.000000	86.629
418.000000	86.613
425.000000	86.578
431.000000	86.541
437.000000	86.508
444.000000	86.489
450.000000	86.492
455.000000	86.504
462.000000	86.529
468.000000	86.547
475.000000	86.552
482.000000	86.536
487.000000	86.513
494.000000	86.470
500.000000	86.425
508.000000	86.352
515.000000	86.280
522.000000	86.202
530.000000	86.107
538.000000	86.004
545.000000	85.911
552.000000	85.819
560.000000	85.721
570.000000	85.612
580.000000	85.512
590.000000	85.413
600.000000	85.310
608.000000	85.227
615.000000	85.155
622.000000	85.082
630.000000	84.998
640.000000	84.893
650.000000	84.795
660.000000	84.708
670.000000	84.627
680.000000	84.539
690.000000	84.445
700.000000	84.349
710.000000	84.249
720.000000	84.146
730.000000	84.044
740.000000	83.945
750.000000	83.848
762.000000	83.733
775.000000	83.599
788.000000	83.457
800.000000	83.319
812.000000	83.176
825.000000	83.020
838.000000	82.873
850.000000	82.746
862.000000	82.618
875.000000	82.472
885.000000	82.356
900.000000	82.185
912.000000	82.057
925.000000	81.925
938.000000	81.793
950.000000	81.671
962.000000	81.551
975.000000	81.426
988.000000	81.307
1000.000000	81.200
1015.000000	81.071
1030.000000	80.952
1044.000000	80.855
1060.000000	80.762
1075.000000	80.687
1090.000000	80.628
1106.000000	80.591
1120.000000	80.584
1138.000000	80.609
1150.000000	80.650
1172.000000	80.790
1180.000000	80.865
1206.000000	81.206
1220.000000	81.436
1241.000000	81.787
1250.000000	81.922
1265.000000	82.104
1280.000000	82.216
1315.000000	82.203
1320.000000	82.177
1340.000000	82.035
1360.000000	81.857
1380.000000	81.673
1400.000000	81.519
1430.000000	81.392
1450.000000	81.381
1475.000000	81.419
1500.000000	81.468
1525.000000	81.513
1550.000000	81.568
1575.000000	81.652
1600.000000	81.785
1625.000000	81.985
1650.000000	82.246
1675.000000	82.537
1700.000000	82.827
1725.000000	83.105
1750.000000	83.371
1775.000000	83.627
1800.000000	83.882
1825.000000	84.144
1850.000000	84.412
1875.000000	84.684
1900.000000	84.958
1925.000000	85.236
1950.000000	85.515
1975.000000	85.791
2000.000000	86.060
2030.000000	86.375
2060.000000	86.680
2090.000000	86.964
2120.000000	87.221
2140.000000	87.376
2180.000000	87.665
2200.000000	87.816
2240.000000	88.173
2270.000000	88.488
2300.000000	88.813
2330.000000	89.128
2360.000000	89.426
2400.000000	89.795
2430.000000	90.050
2470.000000	90.368
2500.000000	90.591
2540.000000	90.872
2580.000000	91.146
2620.000000	91.417
2650.000000	91.614
2690.000000	91.861
2720.000000	92.030
2760.000000	92.235
2800.000000	92.422
2850.000000	92.636
2900.000000	92.830
2950.000000	92.999
3000.000000	93.143
3040.000000	93.240
3070.000000	93.301
3110.000000	93.368
3150.000000	93.424
3200.000000	93.479
3250.000000	93.513
3300.000000	93.524
3350.000000	93.522
3400.000000	93.514
3450.000000	93.500
3500.000000	93.479
3550.000000	93.453
3600.000000	93.431
3650.000000	93.431
3700.000000	93.475
3750.000000	93.550
3820.000000	93.612
3870.000000	93.552
3950.000000	93.224
4000.000000	92.910
4060.000000	92.487
4120.000000	92.055
4180.000000	91.634
4250.000000	91.155
4310.000000	90.745
4370.000000	90.332
4440.000000	89.851
4500.000000	89.448
4550.000000	89.120
4620.000000	88.675
4680.000000	88.307
4750.000000	87.895
4820.000000	87.517
4870.000000	87.282
4940.000000	87.039
5000.000000	86.939
5080.000000	86.978
5150.000000	87.133
5220.000000	87.344
5300.000000	87.639
5380.000000	87.989
5450.000000	88.298
5520.000000	88.551
5600.000000	88.741
5700.000000	88.845
5800.000000	88.851
5900.000000	88.812
6000.000000	88.733
6080.000000	88.613
6150.000000	88.447
6220.000000	88.219
6300.000000	87.883
6400.000000	87.359
6500.000000	86.729
6600.000000	86.009
6700.000000	85.221
6800.000000	84.397
6900.000000	83.582
7000.000000	82.825
7100.000000	82.164
7200.000000	81.623
7300.000000	81.218
7400.000000	80.966
7500.000000	80.883
7620.000000	81.001
7750.000000	81.328
7880.000000	81.764
8000.000000	82.191
8120.000000	82.586
8250.000000	82.899
8380.000000	83.003
8500.000000	82.865
8620.000000	82.511
8750.000000	81.965
8850.000000	81.504
9000.000000	80.877
9120.000000	80.543
9250.000000	80.465
9380.000000	80.721
9500.000000	81.200
9620.000000	81.815
9750.000000	82.517
9880.000000	83.139
10000.000000	83.564
10150.000000	83.837
10300.000000	83.831
10440.000000	83.644
10600.000000	83.364
10750.000000	83.197
10900.000000	83.234
11060.000000	83.513
11200.000000	83.889
11380.000000	84.374
11500.000000	84.596
11720.000000	84.634
11800.000000	84.514
12060.000000	83.616
12200.000000	82.830
12410.000000	81.322
12500.000000	80.576
12650.000000	79.218
12800.000000	77.727
13150.000000	73.931
13200.000000	73.436
13400.000000	72.037
13600.000000	71.824
13800.000000	72.114
14000.000000	72.163
14300.000000	71.668
14500.000000	71.539
14750.000000	72.079
15000.000000	72.982
15250.000000	73.789
15500.000000	74.381
15750.000000	74.817
16000.000000	75.132
16250.000000	75.192
16500.000000	74.788
16750.000000	73.917
17000.000000	73.019
17250.000000	72.695
17500.000000	72.979
17750.000000	73.473
18000.000000	73.924
18250.000000	74.250
18500.000000	74.413
18750.000000	74.414
19000.000000	74.298
19250.000000	74.130
19500.000000	73.972
19750.000000	73.859
20000.000000	73.801
