* Measurement data measured by REW V5.31.3
* Source: Microphone (4- USB Audio Device), MICROPHONE (Master Volume), L, volume: 0.250
* Format: 256k Log Swept Sine, 1 sweep at -12.0 dBFS with no timing reference
* Dated: 01-Aug-2024 14:41:13
* REW Settings:
*  C-weighting compensation: Off
*  Target level: 75.0 dB
* Note: 
* Measurement: OneOdio OpenRock X R
* Smoothing: 1/12 octave
* Frequency Step: 1/48 octave
* Start Frequency: 20.300 Hz
*
* Freq(Hz)	SPL(dB)	Phase(degrees)
20.299999	46.295	-166.8280
20.600000	45.925	-166.5955
20.900000	45.188	-165.3738
21.200001	44.151	-162.4640
21.400000	43.421	-159.6655
21.799999	42.358	-154.7916
22.000000	42.169	-154.5054
22.400000	42.377	-159.9852
22.700001	42.794	-167.2647
23.000000	43.279	-173.7449
23.299999	43.841	-176.7938
23.600000	44.608	-175.4092
24.000000	46.114	-169.0223
24.299999	47.461	-164.4668
24.700001	49.092	-162.0607
25.000000	49.983	-162.9241
25.400000	50.658	-166.2536
25.799999	50.905	-170.4893
26.200001	51.101	-174.2948
26.500000	51.480	-176.5542
26.900000	52.426	-179.2075
27.200001	53.330	178.6021
27.600000	54.483	175.2176
28.000000	55.340	171.7299
28.500000	55.904	168.2869
29.000000	56.120	166.7052
29.500000	56.447	166.5385
30.000000	57.223	165.9577
30.400000	58.119	164.3536
30.700001	58.856	162.6222
31.100000	59.831	160.1132
31.500000	60.739	157.8101
32.000000	61.743	155.3588
32.500000	62.583	153.0009
33.000000	63.259	150.2701
33.500000	63.810	147.0186
34.000000	64.315	143.4183
34.500000	64.863	139.7443
35.000000	65.488	136.1904
35.500000	66.160	132.8474
36.000000	66.817	129.7849
36.500000	67.411	127.0959
37.000000	67.927	124.8504
37.500000	68.382	122.9965
38.200001	68.965	120.5597
38.700001	69.356	118.4215
39.500000	69.904	113.8861
40.000000	70.198	110.7703
40.599998	70.566	107.5153
41.200001	71.022	105.0828
41.799999	71.537	103.0943
42.500000	72.062	100.6601
43.099998	72.364	98.2805
43.700001	72.557	95.5891
44.400002	72.746	91.9059
45.000000	72.950	88.2248
45.500000	73.180	84.8670
46.200001	73.588	80.0186
46.799999	73.971	76.2172
47.500000	74.429	72.9797
48.200001	74.957	71.0273
48.700001	75.368	69.6529
49.400002	75.849	66.6404
50.000000	76.056	62.9289
50.799999	76.078	57.3389
51.500000	76.076	52.6052
52.200001	76.194	48.1593
53.000000	76.422	43.4094
53.799999	76.653	39.0490
54.500000	76.837	35.4223
55.200001	77.014	31.8345
56.000000	77.248	27.7336
57.000000	77.604	22.5521
58.000000	77.967	17.4091
59.000000	78.300	12.3767
60.000000	78.599	7.1764
60.799999	78.812	2.8776
61.500000	78.990	-0.8512
62.200001	79.157	-4.4697
63.000000	79.330	-8.4628
64.000000	79.530	-13.3777
65.000000	79.754	-18.3813
66.000000	80.016	-23.3649
67.000000	80.285	-28.1321
68.000000	80.520	-32.7507
69.000000	80.719	-37.3728
70.000000	80.907	-42.0026
71.000000	81.094	-46.5565
72.000000	81.274	-51.0304
73.000000	81.446	-55.4739
74.000000	81.621	-59.8940
75.000000	81.803	-64.2520
76.199997	82.022	-69.3458
77.500000	82.243	-74.7469
78.800003	82.431	-80.0832
80.000000	82.571	-84.8903
81.199997	82.689	-89.5256
82.500000	82.806	-94.3895
83.800003	82.919	-99.0557
85.000000	83.018	-103.1415
86.199997	83.106	-107.1193
87.500000	83.191	-111.4195
88.500000	83.256	-114.7241
90.000000	83.352	-119.6821
91.199997	83.428	-123.6576
92.500000	83.505	-127.9031
93.800003	83.573	-132.0186
95.000000	83.630	-135.7125
96.199997	83.688	-139.2975
97.500000	83.750	-143.0341
98.800003	83.804	-146.6357
100.000000	83.844	-149.8975
101.500000	83.884	-153.9417
103.000000	83.918	-157.9756
104.400002	83.953	-161.7244
106.000000	83.997	-165.8521
107.500000	84.034	-169.5063
109.000000	84.065	-173.0849
110.599998	84.096	-176.9246
112.000000	84.121	179.7218
113.800003	84.152	175.5167
115.000000	84.172	172.8180
117.199997	84.205	168.0459
118.000000	84.218	166.3525
120.599998	84.269	160.9360
122.000000	84.296	158.0769
124.099998	84.336	153.9297
125.000000	84.352	152.1959
126.500000	84.378	149.3359
128.000000	84.402	146.4968
131.500000	84.464	140.0676
132.000000	84.475	139.1902
134.000000	84.528	135.7732
136.000000	84.584	132.4436
138.000000	84.637	129.1401
140.000000	84.688	125.8785
143.000000	84.768	121.2234
145.000000	84.821	118.2648
147.500000	84.882	114.6075
150.000000	84.947	110.9871
152.500000	85.022	107.4509
155.000000	85.105	104.0226
157.500000	85.191	100.6562
160.000000	85.270	97.3249
162.500000	85.339	94.0104
165.000000	85.409	90.7208
167.500000	85.489	87.5043
170.000000	85.574	84.3982
172.500000	85.658	81.3903
175.000000	85.734	78.4653
177.500000	85.803	75.6003
180.000000	85.871	72.7865
182.500000	85.939	70.0115
185.000000	86.010	67.2481
187.500000	86.093	64.4933
190.000000	86.185	61.7980
192.500000	86.279	59.1713
195.000000	86.372	56.5655
197.500000	86.461	53.9719
200.000000	86.546	51.4201
203.000000	86.641	48.4377
206.000000	86.732	45.4965
209.000000	86.823	42.5530
212.000000	86.915	39.6607
214.000000	86.975	37.7903
218.000000	87.088	34.1978
220.000000	87.143	32.4847
224.000000	87.256	29.2296
227.000000	87.334	26.8223
230.000000	87.408	24.3760
233.000000	87.481	21.9536
236.000000	87.554	19.6245
240.000000	87.644	16.6673
243.000000	87.707	14.5342
247.000000	87.788	11.7469
250.000000	87.848	9.6769
254.000000	87.930	6.9498
258.000000	88.017	4.3001
262.000000	88.103	1.7533
265.000000	88.161	-0.1207
269.000000	88.230	-2.6127
272.000000	88.277	-4.4608
276.000000	88.334	-6.8896
280.000000	88.389	-9.2916
285.000000	88.459	-12.2158
290.000000	88.528	-15.0333
295.000000	88.597	-17.7682
300.000000	88.666	-20.4436
304.000000	88.724	-22.5345
307.000000	88.765	-24.0652
311.000000	88.814	-26.0516
315.000000	88.858	-27.9735
320.000000	88.911	-30.3227
325.000000	88.962	-32.6750
330.000000	89.011	-34.9928
335.000000	89.059	-37.1908
340.000000	89.109	-39.2692
345.000000	89.156	-41.2856
350.000000	89.199	-43.2739
355.000000	89.235	-45.2072
360.000000	89.266	-47.0670
365.000000	89.295	-48.8834
370.000000	89.323	-50.6746
375.000000	89.351	-52.4145
382.000000	89.408	-54.6834
387.000000	89.468	-56.1992
395.000000	89.573	-58.5532
400.000000	89.635	-59.9986
406.000000	89.705	-61.7159
412.000000	89.766	-63.3852
418.000000	89.810	-64.9971
425.000000	89.852	-66.9117
431.000000	89.902	-68.7004
437.000000	89.967	-70.6084
444.000000	90.041	-72.8982
450.000000	90.095	-74.8708
455.000000	90.135	-76.4755
462.000000	90.189	-78.6179
468.000000	90.232	-80.3420
475.000000	90.278	-82.2620
482.000000	90.329	-84.1639
487.000000	90.370	-85.5154
494.000000	90.423	-87.3840
500.000000	90.461	-88.9434
508.000000	90.506	-90.9021
515.000000	90.544	-92.5361
522.000000	90.586	-94.1744
530.000000	90.642	-96.1005
538.000000	90.705	-98.0566
545.000000	90.757	-99.7367
552.000000	90.803	-101.3746
560.000000	90.854	-103.2144
570.000000	90.917	-105.4858
580.000000	90.979	-107.6814
590.000000	91.038	-109.8287
600.000000	91.092	-111.9580
608.000000	91.134	-113.6636
615.000000	91.175	-115.1635
622.000000	91.222	-116.6619
630.000000	91.286	-118.3690
640.000000	91.361	-120.5040
650.000000	91.415	-122.6555
660.000000	91.450	-124.7698
670.000000	91.472	-126.8124
680.000000	91.489	-128.8364
690.000000	91.511	-130.7985
700.000000	91.540	-132.6470
710.000000	91.568	-134.4302
720.000000	91.584	-136.2148
730.000000	91.593	-137.9790
740.000000	91.608	-139.7037
750.000000	91.639	-141.4224
762.000000	91.692	-143.5197
775.000000	91.749	-145.8030
788.000000	91.785	-148.0911
800.000000	91.803	-150.3096
812.000000	91.814	-152.6405
825.000000	91.822	-155.2271
838.000000	91.827	-157.8425
850.000000	91.828	-160.2551
862.000000	91.822	-162.6399
875.000000	91.813	-165.1486
885.000000	91.811	-167.0216
900.000000	91.812	-169.7637
912.000000	91.816	-171.9091
925.000000	91.821	-174.2175
938.000000	91.825	-176.5413
950.000000	91.818	-178.7061
962.000000	91.798	179.0999
975.000000	91.764	176.6819
988.000000	91.718	174.2485
1000.000000	91.671	172.0461
1015.000000	91.617	169.4543
1030.000000	91.572	167.0616
1044.000000	91.538	164.9858
1060.000000	91.501	162.7583
1075.000000	91.469	160.7474
1090.000000	91.440	158.7975
1106.000000	91.412	156.7935
1120.000000	91.390	155.1167
1138.000000	91.364	153.0642
1150.000000	91.351	151.7310
1172.000000	91.333	149.2772
1180.000000	91.328	148.3705
1206.000000	91.311	145.4529
1220.000000	91.300	143.9385
1241.000000	91.289	141.7452
1250.000000	91.287	140.8401
1265.000000	91.285	139.3674
1280.000000	91.282	137.9077
1315.000000	91.275	134.4767
1320.000000	91.274	133.9868
1340.000000	91.267	132.0598
1360.000000	91.262	130.2136
1380.000000	91.261	128.3975
1400.000000	91.262	126.5660
1430.000000	91.262	123.8031
1450.000000	91.270	122.0198
1475.000000	91.317	119.9406
1500.000000	91.424	118.0947
1525.000000	91.602	116.4783
1550.000000	91.852	114.9551
1575.000000	92.158	113.2545
1600.000000	92.514	111.2379
1625.000000	92.914	108.9716
1650.000000	93.357	106.5764
1675.000000	93.846	104.0742
1700.000000	94.370	101.3325
1725.000000	94.912	98.1641
1750.000000	95.471	94.5182
1775.000000	96.057	90.4968
1800.000000	96.670	86.1437
1825.000000	97.289	81.3409
1850.000000	97.884	76.0085
1875.000000	98.440	70.1816
1900.000000	98.946	63.9387
1925.000000	99.401	57.4105
1950.000000	99.817	50.7222
1975.000000	100.216	43.9037
2000.000000	100.598	36.8777
2030.000000	101.013	28.1544
2060.000000	101.382	19.2463
2090.000000	101.712	10.1335
2120.000000	101.979	0.7250
2140.000000	102.109	-5.6703
2180.000000	102.267	-18.4979
2200.000000	102.306	-24.8464
2240.000000	102.315	-37.2095
2270.000000	102.269	-46.1598
2300.000000	102.163	-54.9562
2330.000000	101.982	-63.6195
2360.000000	101.737	-72.0784
2400.000000	101.349	-82.8633
2430.000000	101.058	-90.4196
2470.000000	100.760	-99.6926
2500.000000	100.643	-106.2239
2540.000000	100.636	-114.8918
2580.000000	100.761	-123.9729
2620.000000	100.958	-133.5354
2650.000000	101.117	-140.9244
2690.000000	101.316	-150.9218
2720.000000	101.447	-158.4674
2760.000000	101.587	-168.6222
2800.000000	101.691	-179.0270
2850.000000	101.776	167.5402
2900.000000	101.799	153.7908
2950.000000	101.747	139.9220
3000.000000	101.620	126.2136
3040.000000	101.470	115.5813
3070.000000	101.332	107.9794
3110.000000	101.126	98.6647
3150.000000	100.924	90.6696
3200.000000	100.697	82.6216
3250.000000	100.470	76.0060
3300.000000	100.212	70.0251
3350.000000	99.922	64.2842
3400.000000	99.600	58.6307
3450.000000	99.255	53.1033
3500.000000	98.910	47.9254
3550.000000	98.574	43.2429
3600.000000	98.223	38.9453
3650.000000	97.841	34.8356
3700.000000	97.440	30.9219
3750.000000	97.036	27.3645
3820.000000	96.477	23.2886
3870.000000	96.108	21.3224
3950.000000	95.704	20.2948
4000.000000	95.660	20.9227
4060.000000	95.873	22.3220
4120.000000	96.349	23.4160
4180.000000	97.001	23.3884
4250.000000	97.833	21.6700
4310.000000	98.512	18.9224
4370.000000	99.110	15.2450
4440.000000	99.693	10.0830
4500.000000	100.104	5.0992
4550.000000	100.383	0.5657
4620.000000	100.668	-6.5042
4680.000000	100.796	-13.2236
4750.000000	100.807	-21.4272
4820.000000	100.698	-29.5526
4870.000000	100.563	-35.0819
4940.000000	100.299	-42.0265
5000.000000	100.015	-46.8430
5080.000000	99.611	-51.3348
5150.000000	99.274	-53.5142
5220.000000	98.976	-54.1219
5300.000000	98.753	-53.2644
5380.000000	98.733	-51.9744
5450.000000	98.870	-51.5723
5520.000000	99.077	-52.3075
5600.000000	99.305	-54.5214
5700.000000	99.455	-58.8763
5800.000000	99.355	-64.0559
5900.000000	99.004	-68.8524
6000.000000	98.469	-72.5142
6080.000000	97.945	-74.2972
6150.000000	97.446	-74.8236
6220.000000	96.936	-74.4480
6300.000000	96.368	-73.3541
6400.000000	95.691	-72.0900
6500.000000	95.045	-71.8853
6600.000000	94.412	-72.8192
6700.000000	93.768	-74.4222
6800.000000	93.099	-76.1401
6900.000000	92.415	-77.6099
7000.000000	91.731	-78.5657
7100.000000	91.059	-78.6141
7200.000000	90.408	-77.4408
7300.000000	89.803	-75.0647
7400.000000	89.246	-71.7803
7500.000000	88.719	-67.7811
7620.000000	88.073	-62.0669
7750.000000	87.310	-53.7842
7880.000000	86.805	-40.6661
8000.000000	87.220	-25.1726
8120.000000	88.560	-13.7758
8250.000000	90.305	-9.7498
8380.000000	91.783	-11.2407
8500.000000	92.793	-14.5370
8620.000000	93.507	-18.1440
8750.000000	94.030	-21.9696
8850.000000	94.304	-24.9453
9000.000000	94.564	-29.5610
9120.000000	94.657	-33.2429
9250.000000	94.624	-36.9048
9380.000000	94.401	-40.1450
9500.000000	93.973	-42.6278
9620.000000	93.304	-44.0812
9750.000000	92.325	-43.6880
9880.000000	91.155	-40.4047
10000.000000	90.008	-34.0582
10150.000000	88.667	-20.6871
10300.000000	87.708	-0.7625
10440.000000	87.424	22.5404
10600.000000	87.909	49.8485
10750.000000	88.897	71.1980
10900.000000	90.025	86.9023
11060.000000	91.060	98.2157
11200.000000	91.650	104.4111
11380.000000	91.839	108.4198
11500.000000	91.573	109.3105
11720.000000	90.295	109.4537
11800.000000	89.602	109.6838
12060.000000	86.656	113.1924
12200.000000	84.689	117.7502
12410.000000	81.362	130.9603
12500.000000	79.877	140.6127
12650.000000	77.566	164.9365
12800.000000	75.840	-161.7576
13150.000000	75.337	-85.5027
13200.000000	75.606	-76.3104
13400.000000	77.075	-48.3439
13600.000000	78.549	-32.4102
13800.000000	79.625	-21.9396
14000.000000	80.365	-12.0778
14300.000000	81.470	5.9120
14500.000000	82.496	18.9988
14750.000000	84.040	32.4019
15000.000000	85.608	40.0669
15250.000000	87.016	42.8549
15500.000000	88.101	41.4397
15750.000000	88.546	35.9114
16000.000000	88.054	28.7693
16250.000000	86.667	24.0929
16500.000000	84.753	23.1062
16750.000000	82.590	22.1493
17000.000000	80.228	15.7764
17250.000000	78.135	-16.4912
17500.000000	77.212	-122.1970
17750.000000	77.005	-147.4180
18000.000000	76.429	-157.7429
18250.000000	75.601	-165.8107
18500.000000	76.079	73.4327
18750.000000	78.446	25.8016
19000.000000	81.164	23.5780
19250.000000	83.345	21.8948
19500.000000	84.816	19.9243
19750.000000	85.638	18.2488
20000.000000	85.968	17.4181
