* Measurement data measured by REW V5.20.13
* Source: Microphone (2- USB Audio Device), MICROPHONE (Master Volume), L, volume: 0.250. Timing signal peak level -29.0 dBFS, measurement signal peak level -28.1 dBFS
* Format: 256k Log Swept Sine, 1 sweep at -12.0 dBFS using an acoustic timing reference
* Dated: 03-Jul-2023 11:43:06
* REW Settings:
*  C-weighting compensation: Off
*  Target level: 75.0 dB
* Note: 
* Measurement: OneOdio OpenRock Pro L
* Smoothing: 1/12 octave
* Frequency Step: 1/48 octave
* Start Frequency: 20.000 Hz
*
* Freq(Hz)	SPL(dB)	Phase(degrees)
20.000000	59.030	153.8152
20.299999	58.881	167.3210
20.600000	58.808	-179.8262
20.900000	58.741	-167.5170
21.200001	58.655	-155.4551
21.400000	58.601	-147.4801
21.799999	58.518	-131.8870
22.000000	58.482	-124.3737
22.400000	58.362	-110.0349
22.700001	58.176	-99.5444
23.000000	57.902	-88.7137
23.299999	57.611	-77.3318
23.600000	57.379	-65.7236
24.000000	57.201	-50.8577
24.299999	57.089	-40.7932
24.700001	56.789	-28.6768
25.000000	56.358	-19.7487
25.400000	55.479	-6.6830
25.799999	54.324	9.0007
26.200001	53.054	28.0138
26.500000	52.199	44.2794
26.900000	51.456	67.4919
27.200001	51.297	84.7618
27.600000	51.507	106.2229
28.000000	51.933	125.6128
28.500000	52.621	147.7949
29.000000	53.474	167.6211
29.500000	54.292	-176.1248
30.000000	54.814	-163.5411
30.400000	54.953	-155.2903
30.700001	54.901	-149.7769
31.100000	54.641	-143.1284
31.500000	54.170	-137.3292
32.000000	53.289	-131.7051
32.500000	52.093	-128.9703
33.000000	50.622	-130.8135
33.500000	49.039	-138.3950
34.000000	47.928	-151.0254
34.500000	48.169	-165.5746
35.000000	49.737	-178.2744
35.500000	51.748	173.2787
36.000000	53.631	168.9261
36.500000	55.196	167.0959
37.000000	56.379	166.2001
37.500000	57.183	165.5640
38.200001	57.793	165.1953
38.700001	58.010	165.3655
39.500000	58.267	165.0581
40.000000	58.413	163.5448
40.599998	58.543	160.2307
41.200001	58.648	156.1932
41.799999	58.866	152.4022
42.500000	59.405	148.4272
43.099998	60.014	144.8164
43.700001	60.572	141.0104
44.400002	61.085	137.2181
45.000000	61.476	135.0323
45.500000	61.820	133.7120
46.200001	62.322	131.9314
46.799999	62.742	130.1401
47.500000	63.218	127.7516
48.200001	63.687	125.0828
48.700001	64.008	123.0621
49.400002	64.429	120.3102
50.000000	64.776	118.2048
50.799999	65.232	115.7133
51.500000	65.609	113.6587
52.200001	65.959	111.6768
53.000000	66.345	109.3762
53.799999	66.707	106.7566
54.500000	66.985	104.2292
55.200001	67.246	101.7380
56.000000	67.574	99.0377
57.000000	68.034	95.6031
58.000000	68.470	92.1526
59.000000	68.878	89.2046
60.000000	69.313	86.7198
60.799999	69.673	84.7462
61.500000	69.982	82.9530
62.200001	70.281	81.1268
63.000000	70.615	79.0238
64.000000	71.017	76.4124
65.000000	71.399	73.9332
66.000000	71.773	71.6482
67.000000	72.147	69.4255
68.000000	72.504	67.0889
69.000000	72.828	64.6622
70.000000	73.133	62.2827
71.000000	73.443	60.0222
72.000000	73.771	57.8762
73.000000	74.115	55.8076
74.000000	74.461	53.7788
75.000000	74.799	51.7693
76.199997	75.189	49.3596
77.500000	75.592	46.7125
78.800003	75.976	44.0376
80.000000	76.322	41.6215
81.199997	76.669	39.2950
82.500000	77.050	36.8154
83.800003	77.427	34.3048
85.000000	77.762	31.9578
86.199997	78.084	29.6208
87.500000	78.421	27.1407
88.500000	78.676	25.2811
90.000000	79.058	22.5107
91.199997	79.356	20.2391
92.500000	79.667	17.7231
93.800003	79.969	15.2068
95.000000	80.248	12.9022
96.199997	80.527	10.5984
97.500000	80.821	8.0947
98.800003	81.100	5.6031
100.000000	81.346	3.3364
101.500000	81.642	0.5549
103.000000	81.928	-2.1829
104.400002	82.187	-4.7084
106.000000	82.470	-7.5472
107.500000	82.726	-10.1516
109.000000	82.976	-12.7167
110.599998	83.239	-15.4366
112.000000	83.464	-17.8149
113.800003	83.740	-20.8577
115.000000	83.915	-22.8527
117.199997	84.217	-26.4054
118.000000	84.321	-27.6702
120.599998	84.647	-31.7573
122.000000	84.813	-33.9739
124.099998	85.049	-37.3188
125.000000	85.144	-38.7462
126.500000	85.295	-41.0967
128.000000	85.436	-43.4072
131.500000	85.733	-48.7487
132.000000	85.772	-49.5156
134.000000	85.922	-52.5907
136.000000	86.062	-55.6328
138.000000	86.193	-58.5750
140.000000	86.315	-61.3993
143.000000	86.481	-65.4828
145.000000	86.583	-68.1492
147.500000	86.699	-71.4215
150.000000	86.800	-74.5938
152.500000	86.890	-77.6584
155.000000	86.974	-80.6633
157.500000	87.053	-83.6479
160.000000	87.120	-86.5594
162.500000	87.181	-89.3721
165.000000	87.237	-92.1113
167.500000	87.290	-94.7861
170.000000	87.338	-97.4041
172.500000	87.376	-99.9651
175.000000	87.406	-102.4612
177.500000	87.428	-104.8893
180.000000	87.441	-107.2499
182.500000	87.439	-109.5496
185.000000	87.419	-111.8019
187.500000	87.385	-114.0093
190.000000	87.343	-116.1516
192.500000	87.301	-118.2021
195.000000	87.267	-120.1570
197.500000	87.246	-122.0396
200.000000	87.236	-123.8743
203.000000	87.237	-126.0262
206.000000	87.248	-128.1281
209.000000	87.261	-130.1660
212.000000	87.268	-132.1320
214.000000	87.268	-133.4119
218.000000	87.258	-135.9143
220.000000	87.247	-137.1335
224.000000	87.211	-139.5000
227.000000	87.176	-141.2209
230.000000	87.138	-142.8976
233.000000	87.099	-144.5192
236.000000	87.064	-146.0851
240.000000	87.021	-148.1143
243.000000	86.991	-149.6033
247.000000	86.950	-151.5447
250.000000	86.918	-152.9659
254.000000	86.876	-154.7948
258.000000	86.834	-156.5295
262.000000	86.791	-158.1895
265.000000	86.757	-159.4119
269.000000	86.713	-161.0361
272.000000	86.680	-162.2434
276.000000	86.639	-163.8094
280.000000	86.602	-165.3127
285.000000	86.560	-167.1276
290.000000	86.515	-168.9004
295.000000	86.465	-170.6228
300.000000	86.412	-172.2920
304.000000	86.367	-173.6152
307.000000	86.333	-174.6064
311.000000	86.291	-175.9088
315.000000	86.251	-177.1710
320.000000	86.201	-178.6802
325.000000	86.152	179.8860
330.000000	86.110	178.4879
335.000000	86.076	177.0735
340.000000	86.046	175.6559
345.000000	86.016	174.2749
350.000000	85.981	172.9385
355.000000	85.942	171.6372
360.000000	85.902	170.3440
365.000000	85.867	169.0408
370.000000	85.839	167.7476
375.000000	85.815	166.4897
382.000000	85.782	164.7908
387.000000	85.758	163.6052
395.000000	85.724	161.6941
400.000000	85.706	160.4802
406.000000	85.686	159.0568
412.000000	85.664	157.6965
418.000000	85.642	156.3541
425.000000	85.622	154.7839
431.000000	85.604	153.4785
437.000000	85.579	152.2383
444.000000	85.543	150.8639
450.000000	85.513	149.7253
455.000000	85.492	148.7904
462.000000	85.466	147.4980
468.000000	85.445	146.4155
475.000000	85.420	145.1736
482.000000	85.396	143.9319
487.000000	85.380	143.0437
494.000000	85.361	141.8081
500.000000	85.350	140.7717
508.000000	85.341	139.4514
515.000000	85.336	138.3689
522.000000	85.332	137.3560
530.000000	85.326	136.2805
538.000000	85.317	135.2651
545.000000	85.306	134.3909
552.000000	85.298	133.5073
560.000000	85.289	132.4773
570.000000	85.273	131.1694
580.000000	85.262	129.8696
590.000000	85.259	128.5248
600.000000	85.247	127.1025
608.000000	85.232	125.9513
615.000000	85.218	124.9490
622.000000	85.207	123.9407
630.000000	85.197	122.7715
640.000000	85.188	121.3108
650.000000	85.183	119.8947
660.000000	85.188	118.5325
670.000000	85.203	117.1909
680.000000	85.217	115.8690
690.000000	85.220	114.6069
700.000000	85.217	113.4137
710.000000	85.214	112.2628
720.000000	85.208	111.1140
730.000000	85.201	109.9496
740.000000	85.196	108.7749
750.000000	85.198	107.5937
762.000000	85.204	106.1693
775.000000	85.203	104.6012
788.000000	85.201	103.0241
800.000000	85.204	101.6423
812.000000	85.207	100.3513
825.000000	85.207	98.9661
838.000000	85.203	97.5494
850.000000	85.197	96.2377
862.000000	85.189	94.9397
875.000000	85.183	93.5597
885.000000	85.180	92.5295
900.000000	85.174	91.0176
912.000000	85.165	89.8181
925.000000	85.152	88.5367
938.000000	85.138	87.2944
950.000000	85.127	86.1860
962.000000	85.119	85.0981
975.000000	85.113	83.9120
988.000000	85.104	82.7052
1000.000000	85.095	81.5756
1015.000000	85.083	80.1407
1030.000000	85.071	78.6931
1044.000000	85.059	77.3474
1060.000000	85.048	75.8125
1075.000000	85.041	74.3391
1090.000000	85.028	72.7867
1106.000000	85.007	71.0513
1120.000000	84.984	69.5275
1138.000000	84.960	67.6570
1150.000000	84.951	66.4884
1172.000000	84.949	64.4939
1180.000000	84.950	63.8014
1206.000000	84.956	61.5649
1220.000000	84.963	60.3287
1241.000000	84.981	58.4171
1250.000000	84.992	57.5857
1265.000000	85.010	56.1955
1280.000000	85.026	54.7944
1315.000000	85.014	51.4416
1320.000000	85.001	50.9591
1340.000000	84.912	49.0562
1360.000000	84.755	47.2413
1380.000000	84.547	45.5762
1400.000000	84.314	44.1143
1430.000000	83.972	42.3653
1450.000000	83.768	41.5073
1475.000000	83.536	40.7371
1500.000000	83.325	40.2531
1525.000000	83.148	40.0746
1550.000000	83.029	40.2249
1575.000000	82.977	40.7322
1600.000000	82.998	41.6462
1625.000000	83.086	42.9899
1650.000000	83.261	44.8090
1675.000000	83.576	46.9973
1700.000000	84.068	49.2573
1725.000000	84.727	51.2159
1750.000000	85.513	52.5002
1775.000000	86.371	52.8187
1800.000000	87.247	52.0311
1825.000000	88.093	50.1634
1850.000000	88.875	47.3675
1875.000000	89.572	43.8417
1900.000000	90.174	39.7699
1925.000000	90.679	35.3503
1950.000000	91.092	30.8001
1975.000000	91.424	26.2933
2000.000000	91.693	21.9330
2030.000000	91.966	16.9264
2060.000000	92.212	12.0690
2090.000000	92.450	7.2386
2120.000000	92.693	2.4655
2140.000000	92.863	-0.6249
2180.000000	93.227	-6.5497
2200.000000	93.415	-9.4305
2240.000000	93.788	-15.1950
2270.000000	94.060	-19.6238
2300.000000	94.334	-24.1544
2330.000000	94.611	-28.7404
2360.000000	94.885	-33.3908
2400.000000	95.233	-39.8798
2430.000000	95.474	-45.1279
2470.000000	95.758	-52.7662
2500.000000	95.933	-58.9476
2540.000000	96.110	-67.5549
2580.000000	96.236	-76.2214
2620.000000	96.319	-84.6940
2650.000000	96.354	-90.8813
2690.000000	96.366	-98.9634
2720.000000	96.349	-104.9570
2760.000000	96.292	-112.8799
2800.000000	96.196	-120.6234
2850.000000	96.026	-129.7407
2900.000000	95.816	-138.0306
2950.000000	95.573	-145.7269
3000.000000	95.304	-153.1232
3040.000000	95.087	-158.8593
3070.000000	94.931	-163.0469
3110.000000	94.734	-168.4838
3150.000000	94.552	-173.7609
3200.000000	94.366	179.8589
3250.000000	94.237	173.6461
3300.000000	94.171	167.5066
3350.000000	94.169	161.3620
3400.000000	94.211	155.0989
3450.000000	94.265	148.5961
3500.000000	94.295	141.8110
3550.000000	94.268	134.7847
3600.000000	94.164	127.6202
3650.000000	93.979	120.5118
3700.000000	93.731	113.6970
3750.000000	93.444	107.3490
3820.000000	93.015	99.3381
3870.000000	92.702	94.1956
3950.000000	92.203	86.8410
4000.000000	91.903	82.7036
4060.000000	91.551	78.0716
4120.000000	91.202	73.7371
4180.000000	90.863	69.7609
4250.000000	90.486	65.5101
4310.000000	90.172	61.8960
4370.000000	89.858	58.0719
4440.000000	89.506	53.4566
4500.000000	89.237	49.6362
4550.000000	89.040	46.6436
4620.000000	88.796	42.7375
4680.000000	88.610	39.6067
4750.000000	88.417	36.1666
4820.000000	88.254	32.9688
4870.000000	88.159	30.8392
4940.000000	88.055	28.0360
5000.000000	87.986	25.7117
5080.000000	87.914	22.4890
5150.000000	87.863	19.3347
5220.000000	87.810	15.7789
5300.000000	87.740	11.4233
5380.000000	87.664	7.2125
5450.000000	87.607	3.9175
5520.000000	87.570	0.9771
5600.000000	87.557	-2.1340
5700.000000	87.577	-5.8428
5800.000000	87.644	-9.3048
5900.000000	87.777	-12.4291
6000.000000	87.997	-15.5426
6080.000000	88.223	-18.4759
6150.000000	88.449	-21.5798
6220.000000	88.701	-25.2021
6300.000000	89.025	-29.8479
6400.000000	89.500	-36.1270
6500.000000	90.064	-42.8078
6600.000000	90.707	-50.1226
6700.000000	91.395	-58.4396
6800.000000	92.083	-67.9604
6900.000000	92.736	-78.6654
7000.000000	93.312	-90.5812
7100.000000	93.741	-103.7962
7200.000000	93.934	-118.0367
7300.000000	93.815	-132.4252
7400.000000	93.371	-145.8332
7500.000000	92.655	-157.4257
7620.000000	91.573	-168.6294
7750.000000	90.295	-177.8593
7880.000000	89.027	175.1679
8000.000000	87.911	170.0705
8120.000000	86.862	165.5931
8250.000000	85.802	160.7090
8380.000000	84.841	155.4578
8500.000000	84.074	150.3745
8620.000000	83.443	145.2556
8750.000000	82.910	139.6655
8850.000000	82.598	135.2299
9000.000000	82.271	128.3239
9120.000000	82.127	122.7416
9250.000000	82.090	116.8540
9380.000000	82.196	111.2208
9500.000000	82.457	106.2635
9620.000000	82.915	101.4879
9750.000000	83.652	96.1958
9880.000000	84.622	90.2076
10000.000000	85.652	83.4086
10150.000000	86.941	72.0565
10300.000000	88.001	56.6389
10440.000000	88.600	38.9130
10600.000000	88.682	16.6596
10750.000000	88.142	-3.4865
10900.000000	87.088	-20.8150
11060.000000	85.572	-35.4007
11200.000000	84.083	-45.1512
11380.000000	82.160	-54.5269
11500.000000	80.960	-59.4194
11720.000000	79.031	-66.7323
11800.000000	78.426	-68.9461
12060.000000	76.818	-74.2081
12200.000000	76.180	-75.9449
12410.000000	75.550	-78.0734
12500.000000	75.415	-79.1292
12650.000000	75.389	-81.5037
12800.000000	75.626	-85.1841
13150.000000	77.122	-103.6721
13200.000000	77.411	-107.9829
13400.000000	78.576	-130.4944
13600.000000	79.459	-161.2749
13800.000000	79.802	162.5400
14000.000000	79.728	125.6992
14300.000000	79.687	74.8568
14500.000000	79.999	44.3594
14750.000000	80.741	9.2721
15000.000000	81.635	-24.6639
15250.000000	82.235	-59.5671
15500.000000	82.134	-95.0435
15750.000000	81.242	-128.1438
16000.000000	79.814	-155.8159
16250.000000	78.265	-177.2071
16500.000000	76.959	166.0550
16750.000000	76.081	151.2466
17000.000000	75.662	136.2701
17250.000000	75.647	120.0864
17500.000000	75.953	102.2994
17750.000000	76.458	82.5510
18000.000000	76.968	60.0959
18250.000000	77.231	34.4335
18500.000000	77.018	6.7561
18750.000000	76.228	-19.8825
19000.000000	74.944	-42.6337
19250.000000	73.381	-60.6738
19500.000000	71.784	-74.4175
19750.000000	70.395	-84.0443
