* Measurement data measured by REW V5.31.3
* Source: Microphone (USB Sound Device        ), MICROPHONE (Master Volume), L, volume: 0.250
* Format: 256k Log Swept Sine, 1 sweep at -12.0 dBFS with no timing reference
* Dated: 18-Jan-2025 14:56:52
* REW Settings:
*  C-weighting compensation: Off
*  Target level: 75.0 dB
* Note: 
* Measurement: OPB3 Bo L
* Smoothing: 1/12 octave
* Frequency Step: 1/48 octave
* Start Frequency: 20.300 Hz
*
* Freq(Hz)	SPL(dB)	Phase(degrees)
20.299999	79.051	-165.0296
20.600000	79.058	-165.3083
20.900000	79.063	-165.6699
21.200001	79.065	-166.0648
21.400000	79.065	-166.3308
21.799999	79.062	-166.8409
22.000000	79.061	-167.0782
22.400000	79.065	-167.5175
22.700001	79.074	-167.8284
23.000000	79.088	-168.1389
23.299999	79.104	-168.4586
23.600000	79.120	-168.7896
24.000000	79.135	-169.2392
24.299999	79.142	-169.5728
24.700001	79.150	-170.0057
25.000000	79.156	-170.3250
25.400000	79.168	-170.7576
25.799999	79.184	-171.2104
26.200001	79.201	-171.6841
26.500000	79.212	-172.0447
26.900000	79.226	-172.5173
27.200001	79.234	-172.8576
27.600000	79.244	-173.2897
28.000000	79.255	-173.7038
28.500000	79.271	-174.2177
29.000000	79.286	-174.7509
29.500000	79.300	-175.3144
30.000000	79.312	-175.9000
30.400000	79.319	-176.3709
30.700001	79.324	-176.7182
31.100000	79.329	-177.1686
31.500000	79.335	-177.6052
32.000000	79.345	-178.1426
32.500000	79.355	-178.6857
33.000000	79.363	-179.2407
33.500000	79.367	-179.7998
34.000000	79.369	179.6487
34.500000	79.370	179.1087
35.000000	79.371	178.5744
35.500000	79.373	178.0371
36.000000	79.374	177.4935
36.500000	79.374	176.9460
37.000000	79.371	176.4000
37.500000	79.365	175.8607
38.200001	79.348	175.1240
38.700001	79.333	174.6096
39.500000	79.306	173.7847
40.000000	79.290	173.2533
40.599998	79.270	172.6004
41.200001	79.249	171.9534
41.799999	79.228	171.3382
42.500000	79.202	170.6679
43.099998	79.179	170.1128
43.700001	79.155	169.5489
44.400002	79.126	168.8647
45.000000	79.099	168.2669
45.500000	79.075	167.7783
46.200001	79.035	167.1320
46.799999	78.997	166.6160
47.500000	78.952	166.0384
48.200001	78.910	165.4604
48.700001	78.883	165.0415
49.400002	78.847	164.4575
50.000000	78.810	163.9771
50.799999	78.748	163.3797
51.500000	78.683	162.8793
52.200001	78.615	162.3730
53.000000	78.538	161.7870
53.799999	78.465	161.2175
54.500000	78.408	160.7361
55.200001	78.354	160.2569
56.000000	78.291	159.7098
57.000000	78.203	159.0683
58.000000	78.107	158.5060
59.000000	78.015	157.9672
60.000000	77.931	157.3937
60.799999	77.866	156.9143
61.500000	77.809	156.4962
62.200001	77.748	156.0957
63.000000	77.677	155.6714
64.000000	77.590	155.1866
65.000000	77.505	154.7391
66.000000	77.421	154.3207
67.000000	77.335	153.9196
68.000000	77.246	153.5172
69.000000	77.148	153.1075
70.000000	77.044	152.7159
71.000000	76.942	152.3648
72.000000	76.846	152.0609
73.000000	76.753	151.7968
74.000000	76.658	151.5445
75.000000	76.560	151.2792
76.199997	76.448	150.9348
77.500000	76.338	150.5471
78.800003	76.229	150.1910
80.000000	76.121	149.8967
81.199997	76.008	149.6244
82.500000	75.888	149.3618
83.800003	75.773	149.1187
85.000000	75.671	148.8981
86.199997	75.568	148.7072
87.500000	75.456	148.5260
88.500000	75.369	148.3795
90.000000	75.234	148.1817
91.199997	75.125	148.0950
92.500000	75.009	148.0457
93.800003	74.894	147.9817
95.000000	74.787	147.9105
96.199997	74.681	147.8521
97.500000	74.568	147.7929
98.800003	74.458	147.7255
100.000000	74.356	147.6750
101.500000	74.228	147.6618
103.000000	74.106	147.7103
104.400002	73.999	147.7924
106.000000	73.875	147.8908
107.500000	73.754	147.9720
109.000000	73.633	148.0474
110.599998	73.507	148.1264
112.000000	73.399	148.2029
113.800003	73.261	148.3035
115.000000	73.170	148.3603
117.199997	73.001	148.4865
118.000000	72.939	148.5511
120.599998	72.743	148.8307
122.000000	72.639	149.0165
124.099998	72.486	149.3407
125.000000	72.422	149.4972
126.500000	72.322	149.7676
128.000000	72.229	150.0256
131.500000	72.022	150.5569
132.000000	71.992	150.6310
134.000000	71.872	150.9415
136.000000	71.750	151.3061
138.000000	71.626	151.7186
140.000000	71.503	152.1400
143.000000	71.326	152.8265
145.000000	71.209	153.3168
147.500000	71.073	153.9396
150.000000	70.956	154.5708
152.500000	70.849	155.2045
155.000000	70.737	155.8577
157.500000	70.615	156.5223
160.000000	70.497	157.1554
162.500000	70.390	157.7497
165.000000	70.293	158.3264
167.500000	70.199	158.9300
170.000000	70.110	159.5887
172.500000	70.025	160.2919
175.000000	69.942	160.9935
177.500000	69.860	161.7060
180.000000	69.776	162.4461
182.500000	69.687	163.1780
185.000000	69.590	163.8683
187.500000	69.490	164.5320
190.000000	69.394	165.2259
192.500000	69.302	165.9620
195.000000	69.219	166.7176
197.500000	69.148	167.4679
200.000000	69.093	168.1867
203.000000	69.044	169.0148
206.000000	69.008	169.8409
209.000000	68.977	170.6583
212.000000	68.949	171.4627
214.000000	68.930	172.0161
218.000000	68.894	173.2166
220.000000	68.876	173.8397
224.000000	68.841	175.0382
227.000000	68.816	175.8662
230.000000	68.796	176.6435
233.000000	68.780	177.3937
236.000000	68.769	178.1237
240.000000	68.757	179.0665
243.000000	68.746	179.7656
247.000000	68.724	-179.3004
250.000000	68.704	-178.6212
254.000000	68.681	-177.7561
258.000000	68.666	-176.8936
262.000000	68.655	-175.9907
265.000000	68.649	-175.2840
269.000000	68.645	-174.3398
272.000000	68.647	-173.6680
276.000000	68.658	-172.8398
280.000000	68.680	-172.0647
285.000000	68.709	-171.1083
290.000000	68.728	-170.1774
295.000000	68.749	-169.2791
300.000000	68.771	-168.4354
304.000000	68.788	-167.8089
307.000000	68.799	-167.3677
311.000000	68.809	-166.8030
315.000000	68.816	-166.2278
320.000000	68.825	-165.4656
325.000000	68.846	-164.6755
330.000000	68.876	-163.9000
335.000000	68.913	-163.1998
340.000000	68.951	-162.5813
345.000000	68.985	-161.9995
350.000000	69.014	-161.4201
355.000000	69.041	-160.8509
360.000000	69.065	-160.3019
365.000000	69.090	-159.7753
370.000000	69.116	-159.2774
375.000000	69.140	-158.8002
382.000000	69.167	-158.1338
387.000000	69.183	-157.6296
395.000000	69.205	-156.8422
400.000000	69.216	-156.4140
406.000000	69.229	-155.9207
412.000000	69.240	-155.4187
418.000000	69.247	-154.9132
425.000000	69.256	-154.3283
431.000000	69.266	-153.8709
437.000000	69.272	-153.4520
444.000000	69.273	-152.9487
450.000000	69.270	-152.4545
455.000000	69.266	-151.9985
462.000000	69.263	-151.3312
468.000000	69.269	-150.7892
475.000000	69.282	-150.1870
482.000000	69.295	-149.5511
487.000000	69.302	-149.0865
494.000000	69.309	-148.4547
500.000000	69.316	-147.9333
508.000000	69.326	-147.3024
515.000000	69.335	-146.8182
522.000000	69.338	-146.3595
530.000000	69.338	-145.8243
538.000000	69.331	-145.2594
545.000000	69.322	-144.7605
552.000000	69.311	-144.2753
560.000000	69.297	-143.7333
570.000000	69.273	-143.0476
580.000000	69.244	-142.2887
590.000000	69.210	-141.4194
600.000000	69.175	-140.5370
608.000000	69.155	-139.8781
615.000000	69.143	-139.3331
622.000000	69.132	-138.8044
630.000000	69.114	-138.1901
640.000000	69.083	-137.3568
650.000000	69.050	-136.4771
660.000000	69.017	-135.5804
670.000000	68.987	-134.6831
680.000000	68.958	-133.8019
690.000000	68.936	-132.9368
700.000000	68.926	-132.0992
710.000000	68.920	-131.2343
720.000000	68.904	-130.2593
730.000000	68.876	-129.2097
740.000000	68.841	-128.1827
750.000000	68.812	-127.2009
762.000000	68.788	-126.0067
775.000000	68.770	-124.6399
788.000000	68.749	-123.1942
800.000000	68.733	-121.8246
812.000000	68.726	-120.4494
825.000000	68.727	-118.9739
838.000000	68.738	-117.5515
850.000000	68.755	-116.2660
862.000000	68.777	-114.9839
875.000000	68.807	-113.6017
885.000000	68.833	-112.5463
900.000000	68.871	-110.9728
912.000000	68.901	-109.7272
925.000000	68.937	-108.4144
938.000000	68.974	-107.1422
950.000000	69.010	-105.9766
962.000000	69.049	-104.8139
975.000000	69.101	-103.5784
988.000000	69.161	-102.3690
1000.000000	69.219	-101.2815
1015.000000	69.287	-99.9937
1030.000000	69.351	-98.7915
1044.000000	69.411	-97.7358
1060.000000	69.478	-96.5745
1075.000000	69.537	-95.5136
1090.000000	69.594	-94.4386
1106.000000	69.652	-93.2478
1120.000000	69.700	-92.2001
1138.000000	69.762	-90.8915
1150.000000	69.805	-90.0555
1172.000000	69.884	-88.6109
1180.000000	69.914	-88.1051
1206.000000	70.018	-86.4771
1220.000000	70.079	-85.5977
1241.000000	70.174	-84.2724
1250.000000	70.214	-83.6974
1265.000000	70.281	-82.7262
1280.000000	70.350	-81.7444
1315.000000	70.493	-79.4004
1320.000000	70.507	-79.0536
1340.000000	70.534	-77.6272
1360.000000	70.512	-76.1431
1380.000000	70.456	-74.6251
1400.000000	70.391	-73.0646
1430.000000	70.327	-70.5996
1450.000000	70.321	-68.9019
1475.000000	70.355	-66.7554
1500.000000	70.428	-64.6230
1525.000000	70.523	-62.4567
1550.000000	70.631	-60.2581
1575.000000	70.752	-58.1097
1600.000000	70.889	-56.0247
1625.000000	71.044	-53.9846
1650.000000	71.207	-52.0132
1675.000000	71.374	-50.1126
1700.000000	71.537	-48.2817
1725.000000	71.693	-46.5193
1750.000000	71.846	-44.7804
1775.000000	72.002	-43.0595
1800.000000	72.160	-41.3603
1825.000000	72.320	-39.6655
1850.000000	72.482	-37.9594
1875.000000	72.645	-36.2415
1900.000000	72.808	-34.5388
1925.000000	72.974	-32.8562
1950.000000	73.145	-31.1682
1975.000000	73.323	-29.4799
2000.000000	73.509	-27.8374
2030.000000	73.742	-25.9481
2060.000000	73.990	-24.1272
2090.000000	74.247	-22.3666
2120.000000	74.508	-20.6649
2140.000000	74.686	-19.5723
2180.000000	75.055	-17.5311
2200.000000	75.245	-16.5901
2240.000000	75.638	-14.8869
2270.000000	75.938	-13.7632
2300.000000	76.235	-12.7559
2330.000000	76.526	-11.8508
2360.000000	76.812	-11.0125
2400.000000	77.193	-10.0407
2430.000000	77.482	-9.4962
2470.000000	77.861	-9.0545
2500.000000	78.131	-8.9087
2540.000000	78.461	-8.8970
2580.000000	78.754	-9.0365
2620.000000	79.014	-9.2828
2650.000000	79.189	-9.5250
2690.000000	79.395	-9.9020
2720.000000	79.528	-10.2218
2760.000000	79.676	-10.7053
2800.000000	79.796	-11.2262
2850.000000	79.914	-11.8365
2900.000000	79.991	-12.3328
2950.000000	80.027	-12.7092
3000.000000	80.026	-12.9959
3040.000000	79.999	-13.1360
3070.000000	79.968	-13.1657
3110.000000	79.915	-13.0908
3150.000000	79.853	-12.8948
3200.000000	79.765	-12.5006
3250.000000	79.666	-11.9457
3300.000000	79.561	-11.2180
3350.000000	79.447	-10.3193
3400.000000	79.327	-9.2759
3450.000000	79.204	-8.0921
3500.000000	79.082	-6.7663
3550.000000	78.967	-5.3149
3600.000000	78.863	-3.7518
3650.000000	78.774	-2.0954
3700.000000	78.701	-0.3651
3750.000000	78.645	1.4331
3820.000000	78.602	4.0381
3870.000000	78.597	5.9594
3950.000000	78.625	9.1093
4000.000000	78.658	11.0758
4060.000000	78.708	13.3869
4120.000000	78.768	15.6354
4180.000000	78.836	17.8162
4250.000000	78.921	20.2239
4310.000000	79.000	22.1200
4370.000000	79.089	23.8351
4440.000000	79.209	25.6087
4500.000000	79.325	26.9482
4550.000000	79.430	27.9324
4620.000000	79.582	29.0682
4680.000000	79.704	29.7921
4750.000000	79.817	30.3739
4820.000000	79.887	30.7405
4870.000000	79.904	30.8990
4940.000000	79.879	31.0058
5000.000000	79.809	31.0316
5080.000000	79.641	31.0876
5150.000000	79.418	31.2836
5220.000000	79.129	31.7443
5300.000000	78.734	32.7555
5380.000000	78.295	34.4098
5450.000000	77.903	36.3927
5520.000000	77.525	38.7961
5600.000000	77.130	41.9410
5700.000000	76.701	46.3186
5800.000000	76.366	51.0775
5900.000000	76.133	56.0429
6000.000000	75.986	61.0131
6080.000000	75.912	64.9173
6150.000000	75.869	68.2672
6220.000000	75.843	71.5514
6300.000000	75.832	75.2225
6400.000000	75.846	79.6898
6500.000000	75.897	83.9999
6600.000000	75.986	88.0977
6700.000000	76.119	91.9501
6800.000000	76.300	95.5463
6900.000000	76.532	98.8417
7000.000000	76.814	101.7266
7100.000000	77.150	104.0277
7200.000000	77.539	105.5278
7300.000000	77.959	105.9943
7400.000000	78.364	105.2193
7500.000000	78.689	103.0987
7620.000000	78.850	98.9726
7750.000000	78.575	93.4398
7880.000000	77.712	88.4258
8000.000000	76.417	85.8071
8120.000000	74.777	86.2183
8250.000000	72.839	90.5877
8380.000000	71.001	98.5415
8500.000000	69.580	107.7618
8620.000000	68.481	117.3993
8750.000000	67.582	127.3966
8850.000000	67.018	134.6471
9000.000000	66.254	145.0979
9120.000000	65.650	153.4341
9250.000000	64.975	162.8738
9380.000000	64.292	173.2887
9500.000000	63.713	-175.5868
9620.000000	63.296	-162.4324
9750.000000	63.201	-145.9756
9880.000000	63.603	-129.0367
10000.000000	64.360	-115.4655
10150.000000	65.531	-102.9410
10300.000000	66.639	-94.3527
10440.000000	67.490	-88.0857
10600.000000	68.273	-81.3567
10750.000000	68.916	-74.7068
10900.000000	69.565	-67.5536
11060.000000	70.333	-59.5700
11200.000000	71.098	-52.6363
11380.000000	72.207	-44.3716
11500.000000	73.004	-39.5716
11720.000000	74.495	-32.6317
11800.000000	75.017	-30.6439
12060.000000	76.605	-24.9952
12200.000000	77.466	-21.8233
12410.000000	78.949	-17.1466
12500.000000	79.660	-15.6906
12650.000000	80.878	-14.7013
12800.000000	82.028	-15.8286
13150.000000	83.777	-25.9589
13200.000000	83.866	-27.9921
13400.000000	83.755	-36.3802
13600.000000	82.951	-43.3559
13800.000000	81.685	-47.1354
14000.000000	80.259	-47.0211
14300.000000	78.398	-40.3079
14500.000000	77.571	-32.8408
14750.000000	77.047	-21.9399
15000.000000	77.000	-10.7576
15250.000000	77.298	-0.5147
15500.000000	77.821	7.8280
15750.000000	78.491	13.6254
16000.000000	79.238	16.6680
16250.000000	79.964	17.2700
16500.000000	80.556	16.1782
16750.000000	80.959	14.2621
17000.000000	81.190	12.0546
17250.000000	81.264	9.5566
17500.000000	81.138	6.6188
17750.000000	80.733	3.5613
18000.000000	80.018	1.4193
18250.000000	79.104	1.4647
18500.000000	78.231	4.0103
18750.000000	77.584	7.6047
19000.000000	77.094	10.4053
19250.000000	76.558	12.0140
19500.000000	75.870	13.0974
19750.000000	75.129	14.1634
20000.000000	74.634	14.9688
