* Measurement data measured by REW V5.20.13
* Source: Microphone (USB Audio Device), no input selected, L, volume: no control. Timing signal peak level -37.5 dBFS, measurement signal peak level -37.3 dBFS
* Format: 256k Log Swept Sine, 1 sweep at -12.0 dBFS using an acoustic timing reference
* Dated: 09-Apr-2023 12:28:24
* REW Settings:
*  C-weighting compensation: Off
*  Target level: 75.0 dB
* Note: 
* Measurement: OnePlus Buds Pro L
* Smoothing: 1/12 octave
* Frequency Step: 1/48 octave
* Start Frequency: 20.300 Hz
*
* Freq(Hz)	SPL(dB)	Phase(degrees)
20.299999	65.990	82.4901
20.600000	66.011	82.3568
20.900000	66.073	82.0587
21.200001	66.165	81.6811
21.400000	66.242	81.3979
21.799999	66.424	80.8006
22.000000	66.521	80.5138
22.400000	66.710	80.0190
22.700001	66.839	79.7344
23.000000	66.951	79.5060
23.299999	67.050	79.2854
23.600000	67.138	79.0306
24.000000	67.239	78.6043
24.299999	67.309	78.2451
24.700001	67.402	77.8047
25.000000	67.480	77.5722
25.400000	67.604	77.4246
25.799999	67.752	77.3806
26.200001	67.905	77.2720
26.500000	68.007	77.0617
26.900000	68.103	76.5855
27.200001	68.139	76.1346
27.600000	68.143	75.5339
28.000000	68.123	75.0721
28.500000	68.111	74.7632
29.000000	68.150	74.6270
29.500000	68.236	74.4752
30.000000	68.332	74.2328
30.400000	68.399	74.0195
30.700001	68.441	73.8831
31.100000	68.490	73.7548
31.500000	68.537	73.6779
32.000000	68.596	73.6050
32.500000	68.654	73.5061
33.000000	68.703	73.3686
33.500000	68.741	73.2169
34.000000	68.771	73.0856
34.500000	68.799	72.9974
35.000000	68.827	72.9573
35.500000	68.858	72.9557
36.000000	68.892	72.9776
36.500000	68.924	73.0140
37.000000	68.953	73.0677
37.500000	68.975	73.1469
38.200001	68.999	73.3067
38.700001	69.010	73.4501
39.500000	69.025	73.7227
40.000000	69.036	73.9231
40.599998	69.054	74.1913
41.200001	69.081	74.4779
41.799999	69.110	74.7814
42.500000	69.140	75.1760
43.099998	69.157	75.5617
43.700001	69.166	75.9793
44.400002	69.167	76.4748
45.000000	69.167	76.8823
45.500000	69.170	77.1994
46.200001	69.185	77.6087
46.799999	69.205	77.9526
47.500000	69.230	78.4182
48.200001	69.252	79.0177
48.700001	69.267	79.5220
49.400002	69.292	80.2657
50.000000	69.311	80.8836
50.799999	69.325	81.6887
51.500000	69.327	82.4327
52.200001	69.329	83.2083
53.000000	69.337	84.0441
53.799999	69.351	84.7807
54.500000	69.363	85.3995
55.200001	69.374	86.0604
56.000000	69.380	86.8791
57.000000	69.374	87.9177
58.000000	69.359	88.9296
59.000000	69.351	89.9906
60.000000	69.361	91.1125
60.799999	69.376	91.9767
61.500000	69.388	92.6730
62.200001	69.396	93.3248
63.000000	69.401	94.0603
64.000000	69.400	95.0498
65.000000	69.393	96.1705
66.000000	69.377	97.3706
67.000000	69.350	98.5674
68.000000	69.315	99.7505
69.000000	69.280	100.9303
70.000000	69.242	102.1004
71.000000	69.199	103.2681
72.000000	69.160	104.4529
73.000000	69.128	105.6889
74.000000	69.099	107.0019
75.000000	69.066	108.3330
76.199997	69.014	109.8003
77.500000	68.941	111.2277
78.800003	68.858	112.6924
80.000000	68.773	114.1834
81.199997	68.680	115.7864
82.500000	68.572	117.5975
83.800003	68.455	119.4519
85.000000	68.343	121.1742
86.199997	68.228	122.8909
87.500000	68.101	124.7615
88.500000	68.003	126.2364
90.000000	67.857	128.5738
91.199997	67.741	130.5703
92.500000	67.607	132.7988
93.800003	67.458	135.0341
95.000000	67.310	137.1166
96.199997	67.165	139.2527
97.500000	67.018	141.6495
98.800003	66.876	144.1234
100.000000	66.738	146.4551
101.500000	66.553	149.4289
103.000000	66.371	152.4762
104.400002	66.215	155.3661
106.000000	66.046	158.6924
107.500000	65.881	161.8278
109.000000	65.708	164.9979
110.599998	65.525	168.4526
112.000000	65.375	171.5717
113.800003	65.192	175.7264
115.000000	65.070	178.5615
117.199997	64.839	-176.1685
118.000000	64.754	-174.2335
120.599998	64.476	-167.8298
122.000000	64.329	-164.2777
124.099998	64.117	-158.8474
125.000000	64.030	-156.5054
126.500000	63.891	-152.6078
128.000000	63.759	-148.7363
131.500000	63.470	-139.6595
132.000000	63.429	-138.3444
134.000000	63.269	-133.0529
136.000000	63.108	-127.6919
138.000000	62.953	-122.2199
140.000000	62.816	-116.6339
143.000000	62.639	-108.1803
145.000000	62.530	-102.6053
147.500000	62.387	-95.6718
150.000000	62.252	-88.6008
152.500000	62.141	-81.3442
155.000000	62.043	-74.0345
157.500000	61.954	-66.7991
160.000000	61.872	-59.6028
162.500000	61.782	-52.3567
165.000000	61.691	-45.0218
167.500000	61.612	-37.6724
170.000000	61.550	-30.3823
172.500000	61.499	-23.0746
175.000000	61.456	-15.6824
177.500000	61.420	-8.2963
180.000000	61.383	-1.0080
182.500000	61.339	6.2090
185.000000	61.287	13.4116
187.500000	61.225	20.6101
190.000000	61.160	27.7924
192.500000	61.107	34.9773
195.000000	61.082	42.1910
197.500000	61.081	49.4406
200.000000	61.088	56.7308
203.000000	61.098	65.5072
206.000000	61.114	74.2550
209.000000	61.144	83.0009
212.000000	61.179	91.8066
214.000000	61.196	97.7145
218.000000	61.194	109.5579
220.000000	61.177	115.4299
224.000000	61.143	126.9830
227.000000	61.135	135.5834
230.000000	61.142	144.2867
233.000000	61.153	153.1378
236.000000	61.167	162.0433
240.000000	61.195	173.8362
243.000000	61.218	-177.3773
247.000000	61.240	-165.6845
250.000000	61.243	-156.9170
254.000000	61.237	-145.2236
258.000000	61.232	-133.5473
262.000000	61.231	-121.9094
265.000000	61.232	-113.1987
269.000000	61.232	-101.5321
272.000000	61.231	-92.6846
276.000000	61.221	-80.7404
280.000000	61.204	-68.7394
285.000000	61.193	-53.8292
290.000000	61.210	-39.0159
295.000000	61.233	-24.1512
300.000000	61.242	-9.0925
304.000000	61.247	3.0352
307.000000	61.250	12.1171
311.000000	61.250	24.1737
315.000000	61.244	36.2023
320.000000	61.240	51.2979
325.000000	61.245	66.4834
330.000000	61.245	81.7026
335.000000	61.233	96.9286
340.000000	61.218	112.1646
345.000000	61.214	127.4088
350.000000	61.216	142.6316
355.000000	61.216	157.8054
360.000000	61.217	172.9489
365.000000	61.230	-171.8049
370.000000	61.252	-156.3564
375.000000	61.267	-140.7524
382.000000	61.258	-118.8445
387.000000	61.246	-103.2434
395.000000	61.259	-78.3186
400.000000	61.291	-62.6868
406.000000	61.343	-43.8928
412.000000	61.385	-25.1077
418.000000	61.404	-6.3707
425.000000	61.410	15.3871
431.000000	61.412	33.9966
437.000000	61.410	52.6885
444.000000	61.398	74.6775
450.000000	61.382	93.6237
455.000000	61.364	109.4587
462.000000	61.336	131.6982
468.000000	61.313	150.7974
475.000000	61.288	173.1096
482.000000	61.259	-164.5297
487.000000	61.235	-148.5183
494.000000	61.205	-126.0184
500.000000	61.181	-106.6328
508.000000	61.137	-80.6631
515.000000	61.087	-57.8591
522.000000	61.035	-34.9677
530.000000	60.978	-8.6300
538.000000	60.926	17.8361
545.000000	60.877	40.9930
552.000000	60.821	64.1660
560.000000	60.749	90.7722
570.000000	60.656	124.2708
580.000000	60.571	157.9017
590.000000	60.490	-168.3701
600.000000	60.414	-134.4353
608.000000	60.355	-107.1650
615.000000	60.301	-83.2667
622.000000	60.243	-59.3451
630.000000	60.175	-31.9287
640.000000	60.096	2.6100
650.000000	60.030	37.4789
660.000000	59.970	72.5044
670.000000	59.906	107.6511
680.000000	59.843	142.9946
690.000000	59.797	178.4475
700.000000	59.774	-146.1646
710.000000	59.765	-110.8926
720.000000	59.747	-75.6523
730.000000	59.711	-40.3589
740.000000	59.662	-4.9824
750.000000	59.612	30.4983
762.000000	59.580	73.2288
775.000000	59.594	119.7068
788.000000	59.618	166.3035
800.000000	59.620	-150.6763
812.000000	59.610	-107.6118
825.000000	59.614	-60.7976
838.000000	59.635	-13.7712
850.000000	59.648	29.7827
862.000000	59.663	73.4563
875.000000	59.699	120.8904
885.000000	59.742	157.4202
900.000000	59.821	-147.8301
912.000000	59.878	-104.0369
925.000000	59.926	-56.5234
938.000000	59.971	-8.9128
950.000000	60.025	35.1587
962.000000	60.101	79.4099
975.000000	60.203	127.5752
988.000000	60.304	175.8855
1000.000000	60.385	-139.5020
1015.000000	60.473	-83.7595
1030.000000	60.564	-27.9966
1044.000000	60.664	24.1338
1060.000000	60.794	83.8804
1075.000000	60.920	140.1196
1090.000000	61.044	-163.4009
1106.000000	61.179	-102.9050
1120.000000	61.308	-49.8198
1138.000000	61.471	18.5288
1150.000000	61.569	64.1243
1172.000000	61.738	147.7200
1180.000000	61.801	178.1230
1206.000000	62.017	-82.9573
1220.000000	62.139	-29.6025
1241.000000	62.333	50.5762
1250.000000	62.423	85.0044
1265.000000	62.577	142.4819
1280.000000	62.733	-159.9326
1315.000000	63.068	-25.2363
1320.000000	63.111	-5.9492
1340.000000	63.256	71.3433
1360.000000	63.353	148.8716
1380.000000	63.407	-133.4326
1400.000000	63.437	-55.5889
1430.000000	63.509	61.5420
1450.000000	63.596	139.7930
1475.000000	63.740	-122.2817
1500.000000	63.923	-24.1982
1525.000000	64.125	74.0552
1550.000000	64.330	172.3867
1575.000000	64.536	-89.2432
1600.000000	64.740	9.2363
1625.000000	64.939	107.9043
1650.000000	65.138	-153.1011
1675.000000	65.336	-53.7222
1700.000000	65.536	45.9590
1725.000000	65.729	145.8574
1750.000000	65.905	-114.1270
1775.000000	66.079	-14.0679
1800.000000	66.259	86.0830
1825.000000	66.443	-173.5840
1850.000000	66.630	-73.0576
1875.000000	66.821	27.6245
1900.000000	67.009	128.4067
1925.000000	67.186	-130.7832
1950.000000	67.351	-29.9814
1975.000000	67.507	70.8271
2000.000000	67.660	171.6733
2030.000000	67.850	-67.2080
2060.000000	68.042	54.0747
2090.000000	68.219	175.5566
2120.000000	68.372	-62.7368
2140.000000	68.463	18.5557
2180.000000	68.627	-178.3354
2200.000000	68.708	-96.4463
2240.000000	68.875	68.1284
2270.000000	68.987	-167.7480
2300.000000	69.072	-43.1504
2330.000000	69.130	81.7461
2360.000000	69.169	-153.1582
2400.000000	69.190	13.9316
2430.000000	69.187	139.5059
2470.000000	69.164	-52.6572
2500.000000	69.134	73.5117
2540.000000	69.078	-117.9141
2580.000000	69.008	51.0596
2620.000000	68.928	-139.6143
2650.000000	68.856	-12.4121
2690.000000	68.745	157.5508
2720.000000	68.657	-74.5986
2760.000000	68.542	96.4609
2800.000000	68.428	-91.9082
2850.000000	68.276	123.2412
2900.000000	68.123	-20.8447
2950.000000	67.977	-164.0742
3000.000000	67.829	53.4678
3040.000000	67.707	-131.9746
3070.000000	67.616	-0.7324
3110.000000	67.501	174.6855
3150.000000	67.395	-9.5078
3200.000000	67.273	-149.4248
3250.000000	67.164	70.9414
3300.000000	67.064	-68.2695
3350.000000	66.963	153.0254
3400.000000	66.856	14.6973
3450.000000	66.735	-123.4658
3500.000000	66.600	98.5713
3550.000000	66.479	-38.8535
3600.000000	66.400	-175.4814
3650.000000	66.377	48.5264
3700.000000	66.379	-87.1289
3750.000000	66.369	137.5977
3820.000000	66.343	93.2783
3870.000000	66.359	-40.4375
3950.000000	66.442	-37.5186
4000.000000	66.486	-170.1641
4060.000000	66.521	103.4688
4120.000000	66.548	17.8770
4180.000000	66.574	-67.2754
4250.000000	66.614	-106.2930
4310.000000	66.665	169.2520
4370.000000	66.734	85.4492
4440.000000	66.848	48.6973
4500.000000	66.977	-33.4961
4550.000000	67.104	-161.6680
4620.000000	67.309	163.1797
4680.000000	67.515	81.9219
4750.000000	67.796	47.5859
4820.000000	68.107	13.6953
4870.000000	68.337	-113.2031
4940.000000	68.670	-146.7031
5000.000000	68.972	133.3379
5080.000000	69.398	146.9336
5150.000000	69.773	113.8535
5220.000000	70.146	80.7871
5300.000000	70.572	94.6094
5380.000000	70.977	108.8828
5450.000000	71.295	76.9727
5520.000000	71.562	45.7266
5600.000000	71.792	62.2578
5700.000000	71.938	173.9902
5800.000000	71.909	-73.1504
5900.000000	71.714	41.1250
6000.000000	71.381	157.0254
6080.000000	71.033	178.7227
6150.000000	70.678	153.1875
6220.000000	70.289	128.0332
6300.000000	69.825	151.2207
6400.000000	69.251	-88.9863
6500.000000	68.716	31.8418
6600.000000	68.240	154.0234
6700.000000	67.836	-82.0859
6800.000000	67.513	43.7422
6900.000000	67.268	171.4844
7000.000000	67.097	-59.0156
7100.000000	67.007	72.2227
7200.000000	67.003	-154.9297
7300.000000	67.073	-21.1113
7400.000000	67.189	112.7383
7500.000000	67.324	-113.9941
7620.000000	67.463	117.2109
7750.000000	67.490	37.3828
7880.000000	67.279	-41.9492
8000.000000	66.817	-169.4258
8120.000000	66.082	64.4141
8250.000000	65.000	-10.3438
8380.000000	63.699	-82.2227
8500.000000	62.384	159.1445
8620.000000	61.024	43.3516
8750.000000	59.575	-19.4141
8850.000000	58.541	127.7773
9000.000000	57.213	170.8125
9120.000000	56.375	62.7031
9250.000000	55.683	6.3516
9380.000000	55.186	-49.6367
9500.000000	54.863	-156.4375
9620.000000	54.624	97.0625
9750.000000	54.410	42.0156
9880.000000	54.224	-12.5078
10000.000000	54.086	-117.4062
10150.000000	53.958	-66.9609
10300.000000	53.887	-14.4609
10440.000000	53.880	-11.7266
10600.000000	53.932	95.8438
10750.000000	54.015	153.0625
10900.000000	54.125	-148.3398
11060.000000	54.275	-36.3672
11200.000000	54.435	-27.3672
11380.000000	54.688	-168.8555
11500.000000	54.890	97.6328
11720.000000	55.344	167.9531
11800.000000	55.539	-133.1133
12060.000000	56.262	151.2617
12200.000000	56.697	167.6992
12410.000000	57.413	-165.8594
12500.000000	57.743	-51.1641
12650.000000	58.327	20.6094
12800.000000	58.952	93.1758
13150.000000	60.525	145.0000
13200.000000	60.758	49.6016
13400.000000	61.688	26.9922
13600.000000	62.532	1.1992
13800.000000	63.139	-28.5547
14000.000000	63.358	-60.5938
14300.000000	62.806	73.2109
14500.000000	61.907	46.6250
14750.000000	60.398	-70.8281
15000.000000	58.713	177.9453
15250.000000	57.050	72.7188
15500.000000	55.497	-26.9844
15750.000000	54.123	-122.6406
16000.000000	53.011	142.9219
16250.000000	52.186	45.1719
16500.000000	51.630	-64.2969
16750.000000	51.237	158.4297
17000.000000	50.797	-22.2500
17250.000000	50.133	124.1953
17500.000000	49.182	-114.5000
17750.000000	48.005	-106.1328
18000.000000	46.803	-65.1875
18250.000000	45.810	75.4766
18500.000000	45.182	73.8359
18750.000000	44.963	-89.0625
19000.000000	45.066	177.7969
19250.000000	45.310	151.2969
19500.000000	45.498	-169.3516
19750.000000	45.505	-69.6250
