* Measurement data measured by REW V5.31.3
* Source: Microphone (6- USB Sound Device        ), MICROPHONE (Master Volume), L, volume: 0.700
* Format: 256k Log Swept Sine, 1 sweep at -12.0 dBFS with no timing reference
* Dated: 10-Mar-2025 15:40:40
* REW Settings:
*  C-weighting compensation: Off
*  Target level: 75.0 dB
* Note: 
* Measurement: OPBP 3 L
* Smoothing: 1/12 octave
* Frequency Step: 1/48 octave
* Start Frequency: 20.300 Hz
*
* Freq(Hz)	SPL(dB)	Phase(degrees)
20.299999	91.498	177.9907
20.600000	91.555	177.2869
20.900000	91.625	176.3972
21.200001	91.697	175.4337
21.400000	91.744	174.7725
21.799999	91.835	173.4248
22.000000	91.880	172.7423
22.400000	91.972	171.3654
22.700001	92.041	170.3252
23.000000	92.112	169.2799
23.299999	92.183	168.2299
23.600000	92.255	167.1752
24.000000	92.349	165.7622
24.299999	92.416	164.6987
24.700001	92.501	163.2793
25.000000	92.561	162.2170
25.400000	92.637	160.8081
25.799999	92.707	159.4101
26.200001	92.772	158.0215
26.500000	92.818	156.9827
26.900000	92.875	155.5951
27.200001	92.916	154.5492
27.600000	92.967	153.1465
28.000000	93.016	151.7373
28.500000	93.073	149.9761
29.000000	93.127	148.2263
29.500000	93.179	146.4946
30.000000	93.227	144.7835
30.400000	93.260	143.4294
30.700001	93.282	142.4217
31.100000	93.308	141.0853
31.500000	93.331	139.7515
32.000000	93.357	138.0786
32.500000	93.380	136.3976
33.000000	93.399	134.7203
33.500000	93.414	133.0650
34.000000	93.427	131.4416
34.500000	93.437	129.8436
35.000000	93.443	128.2567
35.500000	93.443	126.6726
36.000000	93.437	125.0956
36.500000	93.428	123.5383
37.000000	93.418	122.0117
37.500000	93.407	120.5184
38.200001	93.392	118.4701
38.700001	93.378	117.0208
39.500000	93.347	114.7029
40.000000	93.322	113.2563
40.599998	93.288	111.5331
41.200001	93.255	109.8293
41.799999	93.224	108.1439
42.500000	93.188	106.2058
43.099998	93.153	104.5832
43.700001	93.114	103.0054
44.400002	93.068	101.2127
45.000000	93.027	99.6963
45.500000	92.991	98.4326
46.200001	92.940	96.6502
46.799999	92.896	95.1116
47.500000	92.851	93.3229
48.200001	92.814	91.5647
48.700001	92.790	90.3356
49.400002	92.750	88.6587
50.000000	92.703	87.2663
50.799999	92.622	85.4615
51.500000	92.546	83.8915
52.200001	92.474	82.2977
53.000000	92.396	80.4610
53.799999	92.317	78.6477
54.500000	92.251	77.0873
55.200001	92.188	75.5416
56.000000	92.117	73.7979
57.000000	92.024	71.6762
58.000000	91.922	69.6001
59.000000	91.811	67.5336
60.000000	91.700	65.4885
60.799999	91.616	63.8843
61.500000	91.546	62.5056
62.200001	91.476	61.1405
63.000000	91.397	59.5789
64.000000	91.293	57.6183
65.000000	91.185	55.6906
66.000000	91.078	53.8316
67.000000	90.972	52.0328
68.000000	90.861	50.2830
69.000000	90.744	48.5739
70.000000	90.624	46.8745
71.000000	90.507	45.1523
72.000000	90.396	43.4152
73.000000	90.292	41.6971
74.000000	90.190	40.0197
75.000000	90.085	38.3967
76.199997	89.952	36.5252
77.500000	89.806	34.5531
78.800003	89.664	32.5948
80.000000	89.533	30.7973
81.199997	89.402	29.0319
82.500000	89.261	27.1576
83.800003	89.122	25.3031
85.000000	88.993	23.6161
86.199997	88.861	21.9796
87.500000	88.714	20.2556
88.500000	88.601	18.9429
90.000000	88.441	16.9816
91.199997	88.325	15.4232
92.500000	88.206	13.7430
93.800003	88.085	12.0772
95.000000	87.971	10.5603
96.199997	87.853	9.0589
97.500000	87.717	7.4555
98.800003	87.575	5.9097
100.000000	87.444	4.5519
101.500000	87.288	2.9086
103.000000	87.142	1.2641
104.400002	87.013	-0.2539
106.000000	86.870	-1.9147
107.500000	86.736	-3.4181
109.000000	86.600	-4.9105
110.599998	86.459	-6.4945
112.000000	86.348	-7.8561
113.800003	86.220	-9.5635
115.000000	86.141	-10.6776
117.199997	86.001	-12.7333
118.000000	85.951	-13.5075
120.599998	85.788	-16.0856
122.000000	85.703	-17.4579
124.099998	85.581	-19.4523
125.000000	85.530	-20.2868
126.500000	85.444	-21.6642
128.000000	85.354	-23.0391
131.500000	85.141	-26.2717
132.000000	85.114	-26.7283
134.000000	85.009	-28.5237
136.000000	84.903	-30.2999
138.000000	84.789	-32.0936
140.000000	84.672	-33.8774
143.000000	84.516	-36.5099
145.000000	84.429	-38.2603
147.500000	84.332	-40.4037
150.000000	84.240	-42.4694
152.500000	84.141	-44.5275
155.000000	84.040	-46.6198
157.500000	83.947	-48.7126
160.000000	83.860	-50.7833
162.500000	83.776	-52.8361
165.000000	83.688	-54.9114
167.500000	83.600	-57.0182
170.000000	83.519	-59.1018
172.500000	83.444	-61.1477
175.000000	83.373	-63.1724
177.500000	83.302	-65.1842
180.000000	83.230	-67.1583
182.500000	83.153	-69.0784
185.000000	83.068	-70.9791
187.500000	82.975	-72.8874
190.000000	82.885	-74.7925
192.500000	82.811	-76.6886
195.000000	82.760	-78.5909
197.500000	82.726	-80.5233
200.000000	82.699	-82.4997
203.000000	82.672	-84.9322
206.000000	82.653	-87.4061
209.000000	82.641	-89.8589
212.000000	82.634	-92.2656
214.000000	82.632	-93.8551
218.000000	82.625	-97.0269
220.000000	82.618	-98.6165
224.000000	82.588	-101.8397
227.000000	82.554	-104.3233
230.000000	82.517	-106.8425
233.000000	82.481	-109.3636
236.000000	82.447	-111.8712
240.000000	82.403	-115.1916
243.000000	82.367	-117.6604
247.000000	82.313	-120.9075
250.000000	82.270	-123.3140
254.000000	82.220	-126.5120
258.000000	82.180	-129.7069
262.000000	82.141	-132.8778
265.000000	82.110	-135.2364
269.000000	82.068	-138.3623
272.000000	82.038	-140.7024
276.000000	82.000	-143.8425
280.000000	81.964	-147.0074
285.000000	81.923	-150.9468
290.000000	81.883	-154.8401
295.000000	81.844	-158.6888
300.000000	81.801	-162.5291
304.000000	81.766	-165.6084
307.000000	81.738	-167.9109
311.000000	81.702	-170.9676
315.000000	81.665	-174.0143
320.000000	81.619	-177.8110
325.000000	81.575	178.4038
330.000000	81.537	174.6304
335.000000	81.505	170.8545
340.000000	81.476	167.0830
345.000000	81.447	163.3499
350.000000	81.413	159.6744
355.000000	81.377	156.0659
360.000000	81.343	152.4962
365.000000	81.312	148.8959
370.000000	81.284	145.2180
375.000000	81.254	141.4961
382.000000	81.209	136.3345
387.000000	81.180	132.6855
395.000000	81.141	126.8705
400.000000	81.119	123.2712
406.000000	81.090	118.9700
412.000000	81.059	114.6701
418.000000	81.031	110.3968
425.000000	81.005	105.4566
431.000000	80.982	101.2561
437.000000	80.958	97.0906
444.000000	80.928	92.2512
450.000000	80.904	88.1151
455.000000	80.885	84.6828
462.000000	80.861	79.9048
468.000000	80.844	75.8503
475.000000	80.822	71.1732
482.000000	80.791	66.5075
487.000000	80.765	63.1569
494.000000	80.734	58.4489
500.000000	80.714	54.4012
508.000000	80.695	48.9930
515.000000	80.682	44.2834
522.000000	80.670	39.6269
530.000000	80.659	34.3707
538.000000	80.644	29.1570
545.000000	80.627	24.6068
552.000000	80.610	20.0781
560.000000	80.592	14.9380
570.000000	80.575	8.5367
580.000000	80.560	2.1274
590.000000	80.543	-4.2850
600.000000	80.525	-10.6334
608.000000	80.516	-15.6505
615.000000	80.511	-20.0270
622.000000	80.507	-24.4219
630.000000	80.504	-29.4608
640.000000	80.497	-35.6885
650.000000	80.486	-41.8030
660.000000	80.478	-47.8988
670.000000	80.463	-54.0254
680.000000	80.434	-60.1594
690.000000	80.404	-66.2606
700.000000	80.382	-72.2793
710.000000	80.363	-78.2145
720.000000	80.344	-84.1570
730.000000	80.329	-90.1273
740.000000	80.319	-96.0756
750.000000	80.312	-101.9585
762.000000	80.302	-108.8772
775.000000	80.283	-116.2748
788.000000	80.268	-123.6665
800.000000	80.259	-130.4509
812.000000	80.251	-137.1859
825.000000	80.244	-144.4073
838.000000	80.242	-151.5465
850.000000	80.241	-158.0851
862.000000	80.240	-164.6281
875.000000	80.239	-171.7350
885.000000	80.241	-177.1805
900.000000	80.248	174.7443
912.000000	80.256	168.3674
925.000000	80.269	161.4993
938.000000	80.287	154.6356
950.000000	80.305	148.3102
962.000000	80.327	142.0074
975.000000	80.358	135.2071
988.000000	80.395	128.4399
1000.000000	80.431	122.2388
1015.000000	80.475	114.5507
1030.000000	80.518	106.8635
1044.000000	80.556	99.6593
1060.000000	80.597	91.4202
1075.000000	80.632	83.7008
1090.000000	80.670	76.0236
1106.000000	80.712	67.8936
1120.000000	80.750	60.8079
1138.000000	80.798	51.7324
1150.000000	80.833	45.7078
1172.000000	80.903	34.7352
1180.000000	80.929	30.7744
1206.000000	81.013	17.9752
1220.000000	81.063	11.0982
1241.000000	81.151	0.8501
1250.000000	81.193	-3.5052
1265.000000	81.269	-10.7253
1280.000000	81.350	-17.9036
1315.000000	81.519	-34.4672
1320.000000	81.536	-36.8115
1340.000000	81.577	-46.1265
1360.000000	81.569	-55.3348
1380.000000	81.528	-64.4592
1400.000000	81.478	-73.5128
1430.000000	81.430	-86.8959
1450.000000	81.433	-95.6959
1475.000000	81.481	-106.6396
1500.000000	81.567	-117.5346
1525.000000	81.676	-128.3505
1550.000000	81.801	-139.0864
1575.000000	81.934	-149.7644
1600.000000	82.065	-160.3724
1625.000000	82.192	-170.9014
1650.000000	82.321	178.6719
1675.000000	82.454	168.3284
1700.000000	82.589	158.0247
1725.000000	82.731	147.7766
1750.000000	82.883	137.5962
1775.000000	83.047	127.4551
1800.000000	83.216	117.3154
1825.000000	83.389	107.1686
1850.000000	83.560	97.0261
1875.000000	83.725	86.8760
1900.000000	83.884	76.7257
1925.000000	84.036	66.5997
1950.000000	84.180	56.5137
1975.000000	84.320	46.4701
2000.000000	84.457	36.4749
2030.000000	84.616	24.5720
2060.000000	84.768	12.7816
2090.000000	84.910	1.0834
2120.000000	85.049	-10.5402
2140.000000	85.142	-18.2445
2180.000000	85.328	-33.5471
2200.000000	85.420	-41.1631
2240.000000	85.599	-56.3389
2270.000000	85.734	-67.6510
2300.000000	85.870	-78.8866
2330.000000	86.005	-90.0377
2360.000000	86.140	-101.0940
2400.000000	86.316	-115.7007
2430.000000	86.441	-126.5964
2470.000000	86.604	-141.0577
2500.000000	86.722	-151.8296
2540.000000	86.877	-166.0625
2580.000000	87.033	179.8436
2620.000000	87.192	165.8387
2650.000000	87.310	155.3640
2690.000000	87.463	141.4506
2720.000000	87.572	131.0773
2760.000000	87.709	117.3423
2800.000000	87.838	103.7169
2850.000000	87.985	86.8143
2900.000000	88.116	70.0515
2950.000000	88.233	53.4567
3000.000000	88.337	37.0425
3040.000000	88.411	24.0255
3070.000000	88.462	14.3508
3110.000000	88.520	1.5989
3150.000000	88.564	-11.0245
3200.000000	88.603	-26.6691
3250.000000	88.628	-42.1240
3300.000000	88.639	-57.3433
3350.000000	88.638	-72.3206
3400.000000	88.624	-87.0731
3450.000000	88.596	-101.6023
3500.000000	88.557	-115.9011
3550.000000	88.511	-129.9720
3600.000000	88.464	-143.8306
3650.000000	88.422	-157.4773
3700.000000	88.389	-170.8989
3750.000000	88.365	175.9028
3820.000000	88.345	157.7610
3870.000000	88.345	145.0006
3950.000000	88.360	124.9097
4000.000000	88.368	112.5543
4060.000000	88.371	97.9254
4120.000000	88.370	83.4917
4180.000000	88.363	69.2407
4250.000000	88.344	52.8033
4310.000000	88.323	38.8431
4370.000000	88.302	24.9980
4440.000000	88.281	8.9785
4500.000000	88.268	-4.6487
4550.000000	88.256	-15.9346
4620.000000	88.230	-31.6099
4680.000000	88.191	-44.9135
4750.000000	88.116	-60.2634
4820.000000	88.000	-75.3938
4870.000000	87.889	-86.0356
4940.000000	87.694	-100.6589
5000.000000	87.490	-112.8984
5080.000000	87.166	-128.7354
5150.000000	86.835	-142.1042
5220.000000	86.465	-154.9624
5300.000000	86.008	-168.9434
5380.000000	85.537	177.8958
5450.000000	85.132	167.0332
5520.000000	84.760	156.7397
5600.000000	84.401	145.5979
5700.000000	84.077	132.4058
5800.000000	83.900	119.7856
5900.000000	83.847	107.4902
6000.000000	83.880	95.3499
6080.000000	83.944	85.7122
6150.000000	84.015	77.3450
6220.000000	84.095	69.0603
6300.000000	84.195	59.7180
6400.000000	84.340	48.2361
6500.000000	84.515	36.9512
6600.000000	84.728	25.8406
6700.000000	84.987	14.8862
6800.000000	85.294	4.0630
6900.000000	85.653	-6.6787
7000.000000	86.066	-17.4202
7100.000000	86.546	-28.2612
7200.000000	87.097	-39.3040
7300.000000	87.721	-50.6873
7400.000000	88.406	-62.5913
7500.000000	89.126	-75.2085
7620.000000	89.945	-91.5469
7750.000000	90.593	-110.7769
7880.000000	90.770	-131.0601
8000.000000	90.390	-149.7441
8120.000000	89.483	-167.2698
8250.000000	88.001	176.1689
8380.000000	86.174	162.8574
8500.000000	84.362	153.7036
8620.000000	82.595	147.4768
8750.000000	80.901	143.6057
8850.000000	79.837	142.1655
9000.000000	78.681	141.3774
9120.000000	78.087	141.1016
9250.000000	77.671	140.6179
9380.000000	77.384	139.8308
9500.000000	77.173	138.9495
9620.000000	76.989	138.1243
9750.000000	76.811	137.5098
9880.000000	76.667	137.3074
10000.000000	76.572	137.4844
10150.000000	76.507	138.1211
10300.000000	76.495	139.1846
10440.000000	76.523	140.5981
10600.000000	76.602	142.7935
10750.000000	76.734	145.4871
10900.000000	76.949	148.8604
11060.000000	77.308	153.2041
11200.000000	77.765	157.5190
11380.000000	78.590	163.3762
11500.000000	79.288	167.0576
11720.000000	80.754	172.1553
11800.000000	81.292	173.3103
12060.000000	82.818	175.4260
12200.000000	83.495	176.6804
12410.000000	84.525	-179.9199
12500.000000	85.039	-177.9863
12650.000000	86.024	-174.7927
12800.000000	87.118	-172.5278
13150.000000	89.409	-174.0215
13200.000000	89.643	-174.9663
13400.000000	90.252	-179.7913
13600.000000	90.347	175.0781
13800.000000	90.059	171.0769
14000.000000	89.557	168.7439
14300.000000	88.610	167.7415
14500.000000	87.844	168.3186
14750.000000	86.657	170.8987
15000.000000	85.223	176.5408
15250.000000	83.676	-174.3816
15500.000000	82.155	-163.0923
15750.000000	80.683	-152.0249
16000.000000	79.133	-142.7378
16250.000000	77.299	-134.4089
16500.000000	75.054	-124.5781
16750.000000	72.439	-110.5996
17000.000000	69.619	-90.4644
17250.000000	66.809	-63.2063
17500.000000	64.198	-29.4673
17750.000000	61.913	8.6467
18000.000000	60.020	49.0701
18250.000000	58.531	90.2239
18500.000000	57.411	132.0190
18750.000000	56.593	174.7119
19000.000000	55.995	-142.3301
19250.000000	55.534	-98.8479
19500.000000	55.152	-55.3567
19750.000000	54.844	-18.8480
20000.000000	54.671	0.6194
