* Measurement data measured by REW V5.31.3
* Source: Microphone (6- USB Sound Device        ), MICROPHONE (Master Volume), L, volume: 0.700
* Format: 256k Log Swept Sine, 1 sweep at -12.0 dBFS with no timing reference
* Dated: 10-Mar-2025 15:42:41
* REW Settings:
*  C-weighting compensation: Off
*  Target level: 75.0 dB
* Note: 
* Measurement: OPBP 3 Seren R
* Smoothing: 1/12 octave
* Frequency Step: 1/48 octave
* Start Frequency: 20.300 Hz
*
* Freq(Hz)	SPL(dB)	Phase(degrees)
20.299999	88.527	146.0658
20.600000	88.533	145.3345
20.900000	88.539	144.4160
21.200001	88.545	143.4313
21.400000	88.549	142.7621
21.799999	88.556	141.4174
22.000000	88.560	140.7470
22.400000	88.568	139.4189
22.700001	88.573	138.4381
23.000000	88.578	137.4724
23.299999	88.581	136.5215
23.600000	88.583	135.5839
24.000000	88.582	134.3499
24.299999	88.577	133.4326
24.700001	88.569	132.2168
25.000000	88.561	131.3103
25.400000	88.550	130.1139
25.799999	88.539	128.9396
26.200001	88.529	127.7937
26.500000	88.523	126.9521
26.900000	88.517	125.8468
27.200001	88.513	125.0254
27.600000	88.506	123.9379
28.000000	88.498	122.8642
28.500000	88.486	121.5550
29.000000	88.476	120.2836
29.500000	88.473	119.0265
30.000000	88.477	117.7548
30.400000	88.480	116.7224
30.700001	88.481	115.9447
31.100000	88.481	114.9124
31.500000	88.480	113.8914
32.000000	88.481	112.6306
32.500000	88.482	111.3839
33.000000	88.483	110.1557
33.500000	88.485	108.9529
34.000000	88.491	107.7687
34.500000	88.502	106.5812
35.000000	88.515	105.3722
35.500000	88.526	104.1439
36.000000	88.533	102.9158
36.500000	88.538	101.7066
37.000000	88.543	100.5191
37.500000	88.551	99.3392
38.200001	88.563	97.6653
38.700001	88.571	96.4457
39.500000	88.577	94.4860
40.000000	88.578	93.2769
40.599998	88.579	91.8393
41.200001	88.582	90.3964
41.799999	88.587	88.9401
42.500000	88.595	87.2397
43.099998	88.603	85.7919
43.700001	88.612	84.3478
44.400002	88.620	82.6586
45.000000	88.622	81.2123
45.500000	88.622	80.0190
46.200001	88.618	78.3776
46.799999	88.616	76.9886
47.500000	88.613	75.3606
48.200001	88.606	73.7151
48.700001	88.601	72.5395
49.400002	88.600	70.9005
50.000000	88.603	69.4912
50.799999	88.601	67.5966
51.500000	88.589	65.9454
52.200001	88.570	64.3163
53.000000	88.546	62.4722
53.799999	88.526	60.6406
54.500000	88.511	59.0532
55.200001	88.495	57.4825
56.000000	88.476	55.7050
57.000000	88.451	53.4967
58.000000	88.429	51.2844
59.000000	88.404	49.0758
60.000000	88.374	46.8858
60.799999	88.346	45.1493
61.500000	88.322	43.6398
62.200001	88.298	42.1371
63.000000	88.272	40.4264
64.000000	88.240	38.3014
65.000000	88.209	36.1953
66.000000	88.180	34.1093
67.000000	88.150	32.0394
68.000000	88.114	29.9779
69.000000	88.074	27.9087
70.000000	88.029	25.8218
71.000000	87.984	23.7335
72.000000	87.942	21.6607
73.000000	87.907	19.6101
74.000000	87.875	17.5958
75.000000	87.839	15.6323
76.199997	87.788	13.3298
77.500000	87.730	10.8459
78.800003	87.673	8.3485
80.000000	87.617	6.0706
81.199997	87.560	3.8343
82.500000	87.500	1.4189
83.800003	87.445	-1.0121
85.000000	87.394	-3.2458
86.199997	87.341	-5.4530
87.500000	87.283	-7.8222
88.500000	87.239	-9.6300
90.000000	87.174	-12.3164
91.199997	87.120	-14.4453
92.500000	87.058	-16.7248
93.800003	86.992	-18.9725
95.000000	86.928	-21.0257
96.199997	86.864	-23.0689
97.500000	86.796	-25.2704
98.800003	86.730	-27.4424
100.000000	86.673	-29.4186
101.500000	86.609	-31.8710
103.000000	86.553	-34.3010
104.400002	86.507	-36.5406
106.000000	86.459	-39.1024
107.500000	86.416	-41.5383
109.000000	86.374	-44.0002
110.599998	86.331	-46.6209
112.000000	86.294	-48.8913
113.800003	86.247	-51.7867
115.000000	86.211	-53.7125
117.199997	86.134	-57.2408
118.000000	86.104	-58.5207
120.599998	86.003	-62.6497
122.000000	85.952	-64.8372
124.099998	85.880	-68.0454
125.000000	85.851	-69.4059
126.500000	85.805	-71.6883
128.000000	85.759	-73.9985
131.500000	85.643	-79.3461
132.000000	85.626	-80.0932
134.000000	85.552	-83.0481
136.000000	85.476	-85.9730
138.000000	85.403	-88.8782
140.000000	85.335	-91.7710
143.000000	85.234	-96.1202
145.000000	85.168	-99.0346
147.500000	85.101	-102.6538
150.000000	85.046	-106.2454
152.500000	84.987	-109.8017
155.000000	84.922	-113.3179
157.500000	84.852	-116.8164
160.000000	84.792	-120.2544
162.500000	84.745	-123.6144
165.000000	84.701	-126.9548
167.500000	84.647	-130.3458
170.000000	84.581	-133.7943
172.500000	84.511	-137.2354
175.000000	84.440	-140.5901
177.500000	84.371	-143.8189
180.000000	84.302	-146.9707
182.500000	84.236	-150.0908
185.000000	84.176	-153.1967
187.500000	84.123	-156.3313
190.000000	84.076	-159.5624
192.500000	84.034	-162.9033
195.000000	83.997	-166.2914
197.500000	83.963	-169.6505
200.000000	83.935	-172.9605
203.000000	83.910	-176.9152
206.000000	83.899	179.1316
209.000000	83.895	175.2002
212.000000	83.891	171.2800
214.000000	83.887	168.6670
218.000000	83.865	163.4614
220.000000	83.844	160.8722
224.000000	83.786	155.7218
227.000000	83.736	151.8814
230.000000	83.681	148.0615
233.000000	83.625	144.2742
236.000000	83.569	140.5197
240.000000	83.499	135.5226
243.000000	83.451	131.7684
247.000000	83.390	126.7921
250.000000	83.346	123.0901
254.000000	83.290	118.1793
258.000000	83.235	113.3134
262.000000	83.178	108.4907
265.000000	83.134	104.8919
269.000000	83.076	100.1141
272.000000	83.032	96.5430
276.000000	82.979	91.8085
280.000000	82.933	87.1136
285.000000	82.879	81.2656
290.000000	82.817	75.4122
295.000000	82.751	69.5945
300.000000	82.689	63.8169
304.000000	82.643	59.2158
307.000000	82.609	55.7852
311.000000	82.565	51.2390
315.000000	82.522	46.7132
320.000000	82.470	41.0615
325.000000	82.418	35.4207
330.000000	82.370	29.8340
335.000000	82.328	24.3153
340.000000	82.289	18.8216
345.000000	82.252	13.3187
350.000000	82.214	7.8342
355.000000	82.167	2.4008
360.000000	82.113	-3.0012
365.000000	82.065	-8.4021
370.000000	82.026	-13.8041
375.000000	81.994	-19.1874
382.000000	81.956	-26.6565
387.000000	81.933	-31.9537
395.000000	81.895	-40.3883
400.000000	81.867	-45.6140
406.000000	81.827	-51.8550
412.000000	81.785	-58.0969
418.000000	81.746	-64.3263
425.000000	81.704	-71.5316
431.000000	81.672	-77.6532
437.000000	81.641	-83.7369
444.000000	81.606	-90.8217
450.000000	81.574	-96.8914
455.000000	81.547	-101.9396
462.000000	81.516	-108.9785
468.000000	81.494	-114.9612
475.000000	81.474	-121.9011
482.000000	81.461	-128.8248
487.000000	81.454	-133.7545
494.000000	81.446	-140.6288
500.000000	81.442	-146.5016
508.000000	81.437	-154.3027
515.000000	81.425	-161.0811
522.000000	81.406	-167.8301
530.000000	81.385	-175.5243
538.000000	81.368	176.7929
545.000000	81.358	170.0756
552.000000	81.350	163.4039
560.000000	81.343	155.8557
570.000000	81.333	146.4896
580.000000	81.323	137.1670
590.000000	81.320	127.8834
600.000000	81.326	118.6444
608.000000	81.330	111.2793
615.000000	81.331	104.8447
622.000000	81.329	98.4227
630.000000	81.323	91.1117
640.000000	81.316	82.0331
650.000000	81.310	73.0029
660.000000	81.304	63.9937
670.000000	81.300	55.0277
680.000000	81.302	46.1129
690.000000	81.307	37.2317
700.000000	81.309	28.4056
710.000000	81.306	19.6471
720.000000	81.301	10.9172
730.000000	81.299	2.2067
740.000000	81.298	-6.4307
750.000000	81.294	-14.9717
762.000000	81.285	-25.1743
775.000000	81.273	-36.1877
788.000000	81.262	-47.0997
800.000000	81.257	-57.0876
812.000000	81.259	-66.9855
825.000000	81.266	-77.6005
838.000000	81.274	-88.1786
850.000000	81.283	-97.9133
862.000000	81.296	-107.5832
875.000000	81.315	-117.9681
885.000000	81.334	-125.9021
900.000000	81.366	-137.7354
912.000000	81.391	-147.1680
925.000000	81.420	-157.3630
938.000000	81.453	-167.5037
950.000000	81.490	-176.8014
962.000000	81.527	173.9384
975.000000	81.569	163.9326
988.000000	81.619	153.9730
1000.000000	81.673	144.8352
1015.000000	81.745	133.4644
1030.000000	81.822	122.1071
1044.000000	81.893	111.5077
1060.000000	81.970	99.4094
1075.000000	82.036	88.1050
1090.000000	82.099	76.8680
1106.000000	82.162	64.9587
1120.000000	82.218	54.5718
1138.000000	82.299	41.2690
1150.000000	82.359	32.4590
1172.000000	82.469	16.4509
1180.000000	82.508	10.6630
1206.000000	82.640	-8.0828
1220.000000	82.719	-18.1188
1241.000000	82.852	-33.0999
1250.000000	82.915	-39.4946
1265.000000	83.027	-50.1152
1280.000000	83.143	-60.6796
1315.000000	83.390	-85.0752
1320.000000	83.418	-88.5311
1340.000000	83.501	-102.2789
1360.000000	83.536	-115.9132
1380.000000	83.537	-129.4441
1400.000000	83.531	-142.8617
1430.000000	83.557	-162.7948
1450.000000	83.614	-176.0066
1475.000000	83.730	167.5236
1500.000000	83.878	151.1517
1525.000000	84.046	134.9044
1550.000000	84.223	118.7568
1575.000000	84.396	102.7032
1600.000000	84.562	86.7194
1625.000000	84.728	70.8582
1650.000000	84.896	55.1632
1675.000000	85.065	39.5959
1700.000000	85.240	24.0857
1725.000000	85.421	8.6440
1750.000000	85.606	-6.6716
1775.000000	85.791	-21.9510
1800.000000	85.980	-37.2377
1825.000000	86.170	-52.4850
1850.000000	86.357	-67.6681
1875.000000	86.538	-82.7875
1900.000000	86.709	-97.8530
1925.000000	86.872	-112.8579
1950.000000	87.028	-127.7913
1975.000000	87.176	-142.6377
2000.000000	87.318	-157.3696
2030.000000	87.480	-174.8954
2060.000000	87.639	167.6837
2090.000000	87.805	150.3376
2120.000000	87.979	133.1224
2140.000000	88.093	121.7435
2180.000000	88.307	99.1785
2200.000000	88.409	87.9614
2240.000000	88.615	65.6770
2270.000000	88.769	49.0715
2300.000000	88.922	32.5259
2330.000000	89.072	16.0629
2360.000000	89.218	-0.2828
2400.000000	89.406	-21.8900
2430.000000	89.545	-37.9766
2470.000000	89.726	-59.2506
2500.000000	89.855	-75.0793
2540.000000	90.020	-96.0483
2580.000000	90.182	-116.8608
2620.000000	90.343	-137.5266
2650.000000	90.458	-152.9331
2690.000000	90.603	-173.3489
2720.000000	90.703	171.4438
2760.000000	90.826	151.3169
2800.000000	90.939	131.3647
2850.000000	91.065	106.6421
2900.000000	91.170	82.1560
2950.000000	91.250	57.9551
3000.000000	91.308	34.0400
3040.000000	91.347	15.1355
3070.000000	91.372	1.0981
3110.000000	91.400	-17.4521
3150.000000	91.422	-35.8367
3200.000000	91.443	-58.5659
3250.000000	91.455	-80.9885
3300.000000	91.456	-103.0823
3350.000000	91.443	-124.8711
3400.000000	91.419	-146.3923
3450.000000	91.381	-167.6404
3500.000000	91.331	171.3850
3550.000000	91.272	150.6697
3600.000000	91.208	130.2192
3650.000000	91.140	110.0461
3700.000000	91.075	90.1653
3750.000000	91.015	70.5903
3820.000000	90.937	43.6514
3870.000000	90.889	24.6858
3950.000000	90.824	-5.1726
4000.000000	90.783	-23.5039
4060.000000	90.726	-45.1970
4120.000000	90.661	-66.5742
4180.000000	90.590	-87.6462
4250.000000	90.498	-111.8916
4310.000000	90.412	-132.4373
4370.000000	90.324	-152.8071
4440.000000	90.231	-176.3433
4500.000000	90.160	163.6890
4550.000000	90.105	147.1965
4620.000000	90.026	124.3416
4680.000000	89.946	104.9766
4750.000000	89.827	82.6760
4820.000000	89.673	60.7202
4870.000000	89.537	45.2607
4940.000000	89.309	23.9429
5000.000000	89.076	5.9763
5080.000000	88.707	-17.4775
5150.000000	88.325	-37.4309
5220.000000	87.892	-56.7517
5300.000000	87.349	-77.9639
5380.000000	86.778	-98.1658
5450.000000	86.287	-114.9495
5520.000000	85.837	-130.9541
5600.000000	85.416	-148.4761
5700.000000	85.071	-169.5930
5800.000000	84.921	169.8079
5900.000000	84.913	149.4500
6000.000000	84.983	129.2336
6080.000000	85.057	113.1802
6150.000000	85.122	99.2578
6220.000000	85.182	85.4802
6300.000000	85.248	69.9453
6400.000000	85.335	50.8879
6500.000000	85.439	32.2366
6600.000000	85.569	13.9500
6700.000000	85.736	-4.0110
6800.000000	85.954	-21.6733
6900.000000	86.230	-39.0723
7000.000000	86.570	-56.2612
7100.000000	86.982	-73.3694
7200.000000	87.474	-90.5479
7300.000000	88.044	-107.9878
7400.000000	88.674	-125.8904
7500.000000	89.330	-144.4148
7620.000000	90.045	-167.5886
7750.000000	90.540	166.2131
7880.000000	90.535	139.4226
8000.000000	89.980	115.1501
8120.000000	88.901	92.4038
8250.000000	87.247	70.4451
8380.000000	85.262	51.8462
8500.000000	83.312	37.8108
8620.000000	81.411	26.6443
8750.000000	79.566	17.3564
8850.000000	78.377	11.7556
9000.000000	77.006	4.9087
9120.000000	76.218	0.1084
9250.000000	75.574	-4.8455
9380.000000	75.056	-9.6555
9500.000000	74.639	-13.8911
9620.000000	74.257	-17.7798
9750.000000	73.866	-21.4302
9880.000000	73.507	-24.3794
10000.000000	73.219	-26.4492
10150.000000	72.930	-28.1689
10300.000000	72.720	-28.9673
10440.000000	72.595	-28.8657
10600.000000	72.546	-27.6719
10750.000000	72.616	-25.4602
10900.000000	72.848	-22.1851
11060.000000	73.339	-17.6052
11200.000000	74.025	-12.9531
11380.000000	75.277	-6.9583
11500.000000	76.304	-3.6628
11720.000000	78.339	-0.5078
11800.000000	79.045	-0.3608
12060.000000	80.942	-1.8621
12200.000000	81.732	-2.4331
12410.000000	82.890	-1.2788
12500.000000	83.460	-0.1196
12650.000000	84.547	1.9546
12800.000000	85.742	3.2029
13150.000000	88.162	-0.3992
13200.000000	88.400	-1.5664
13400.000000	88.994	-6.9358
13600.000000	89.064	-12.0044
13800.000000	88.781	-15.4443
14000.000000	88.332	-16.9338
14300.000000	87.529	-16.4080
14500.000000	86.858	-14.6819
14750.000000	85.771	-10.5098
15000.000000	84.440	-3.0259
15250.000000	83.006	8.1475
15500.000000	81.593	21.6055
15750.000000	80.196	34.7466
16000.000000	78.662	46.1028
16250.000000	76.786	56.6360
16500.000000	74.466	68.9587
16750.000000	71.762	85.9333
17000.000000	68.844	109.9033
17250.000000	65.927	142.3054
17500.000000	63.199	-177.1592
17750.000000	60.801	-131.3789
18000.000000	58.803	-83.6731
18250.000000	57.219	-34.9346
18500.000000	56.005	14.5955
18750.000000	55.073	64.3142
19000.000000	54.320	113.7495
19250.000000	53.645	163.5024
19500.000000	52.977	-144.6443
19750.000000	52.352	-97.6343
20000.000000	51.954	-72.1304
