* Measurement data measured by REW V5.31.3
* Source: Microphone (6- USB Sound Device        ), MICROPHONE (Master Volume), L, volume: 0.700
* Format: 256k Log Swept Sine, 1 sweep at -12.0 dBFS with no timing reference
* Dated: 10-Mar-2025 15:42:21
* REW Settings:
*  C-weighting compensation: Off
*  Target level: 75.0 dB
* Note: 
* Measurement: OPBP 3 Seren L
* Smoothing: 1/12 octave
* Frequency Step: 1/48 octave
* Start Frequency: 20.300 Hz
*
* Freq(Hz)	SPL(dB)	Phase(degrees)
20.299999	88.561	-163.5424
20.600000	88.571	-163.8468
20.900000	88.583	-164.2151
21.200001	88.592	-164.5908
21.400000	88.597	-164.8347
21.799999	88.603	-165.3022
22.000000	88.604	-165.5269
22.400000	88.603	-165.9633
22.700001	88.600	-166.2822
23.000000	88.595	-166.5942
23.299999	88.590	-166.8985
23.600000	88.585	-167.1944
24.000000	88.580	-167.5785
24.299999	88.578	-167.8634
24.700001	88.579	-168.2456
25.000000	88.580	-168.5346
25.400000	88.580	-168.9152
25.799999	88.577	-169.2744
26.200001	88.569	-169.5970
26.500000	88.562	-169.8130
26.900000	88.552	-170.0753
27.200001	88.547	-170.2626
27.600000	88.541	-170.5131
28.000000	88.538	-170.7707
28.500000	88.535	-171.0964
29.000000	88.531	-171.4115
29.500000	88.527	-171.7070
30.000000	88.523	-171.9846
30.400000	88.518	-172.1970
30.700001	88.514	-172.3521
31.100000	88.510	-172.5562
31.500000	88.507	-172.7613
32.000000	88.507	-173.0264
32.500000	88.510	-173.3033
33.000000	88.513	-173.5836
33.500000	88.516	-173.8537
34.000000	88.521	-174.1036
34.500000	88.528	-174.3300
35.000000	88.536	-174.5319
35.500000	88.547	-174.7103
36.000000	88.560	-174.8744
36.500000	88.574	-175.0425
37.000000	88.589	-175.2316
37.500000	88.599	-175.4448
38.200001	88.604	-175.7648
38.700001	88.605	-176.0007
39.500000	88.608	-176.4124
40.000000	88.612	-176.7015
40.599998	88.615	-177.0691
41.200001	88.619	-177.4399
41.799999	88.627	-177.8086
42.500000	88.638	-178.2431
43.099998	88.644	-178.6133
43.700001	88.646	-178.9617
44.400002	88.647	-179.3249
45.000000	88.648	-179.6123
45.500000	88.648	-179.8522
46.200001	88.643	179.8018
46.799999	88.634	179.5029
47.500000	88.626	179.1460
48.200001	88.626	178.7590
48.700001	88.630	178.4727
49.400002	88.634	178.1035
50.000000	88.634	177.8381
50.799999	88.628	177.5096
51.500000	88.614	177.1832
52.200001	88.595	176.8130
53.000000	88.571	176.3853
53.799999	88.549	175.9982
54.500000	88.534	175.6994
55.200001	88.520	175.4197
56.000000	88.503	175.0975
57.000000	88.479	174.6743
58.000000	88.450	174.2444
59.000000	88.421	173.8219
60.000000	88.392	173.4070
60.799999	88.365	173.0935
61.500000	88.339	172.8394
62.200001	88.313	172.5962
63.000000	88.285	172.3121
64.000000	88.257	171.9224
65.000000	88.231	171.4995
66.000000	88.203	171.0685
67.000000	88.170	170.6483
68.000000	88.134	170.2579
69.000000	88.095	169.9157
70.000000	88.052	169.6240
71.000000	88.006	169.3527
72.000000	87.961	169.0671
73.000000	87.918	168.7572
74.000000	87.879	168.4276
75.000000	87.843	168.1006
76.199997	87.802	167.7623
77.500000	87.756	167.4694
78.800003	87.702	167.2053
80.000000	87.644	166.9596
81.199997	87.582	166.7137
82.500000	87.520	166.4471
83.800003	87.470	166.1731
85.000000	87.426	165.9287
86.199997	87.378	165.6970
87.500000	87.320	165.4552
88.500000	87.273	165.2809
90.000000	87.201	165.0522
91.199997	87.146	164.8978
92.500000	87.091	164.7446
93.800003	87.039	164.5880
95.000000	86.988	164.4434
96.199997	86.935	164.3136
97.500000	86.875	164.1963
98.800003	86.811	164.1047
100.000000	86.748	164.0369
101.500000	86.669	163.9684
103.000000	86.596	163.9494
104.400002	86.540	163.9954
106.000000	86.488	164.0546
107.500000	86.445	164.0407
109.000000	86.404	163.9570
110.599998	86.356	163.8317
112.000000	86.312	163.7270
113.800003	86.253	163.6111
115.000000	86.213	163.5306
117.199997	86.140	163.3558
118.000000	86.115	163.2888
120.599998	86.037	163.0911
122.000000	85.992	163.0107
124.099998	85.917	162.9480
125.000000	85.883	162.9450
126.500000	85.826	162.9538
128.000000	85.771	162.9547
131.500000	85.655	162.9649
132.000000	85.638	162.9762
134.000000	85.565	163.0332
136.000000	85.493	163.0773
138.000000	85.424	163.1097
140.000000	85.359	163.1339
143.000000	85.265	163.1580
145.000000	85.205	163.2108
147.500000	85.136	163.3372
150.000000	85.066	163.4356
152.500000	84.999	163.5186
155.000000	84.940	163.6453
157.500000	84.879	163.8209
160.000000	84.817	164.0151
162.500000	84.758	164.1823
165.000000	84.699	164.2959
167.500000	84.638	164.4164
170.000000	84.580	164.5773
172.500000	84.523	164.7693
175.000000	84.461	164.9972
177.500000	84.394	165.2484
180.000000	84.331	165.5328
182.500000	84.279	165.8808
185.000000	84.234	166.2690
187.500000	84.188	166.6284
190.000000	84.135	166.8998
192.500000	84.079	167.0592
195.000000	84.026	167.1348
197.500000	83.981	167.1779
200.000000	83.946	167.2183
203.000000	83.920	167.2828
206.000000	83.908	167.3706
209.000000	83.904	167.4768
212.000000	83.901	167.5999
214.000000	83.896	167.6892
218.000000	83.870	167.8763
220.000000	83.849	167.9625
224.000000	83.799	168.1162
227.000000	83.756	168.2208
230.000000	83.710	168.3397
233.000000	83.659	168.4955
236.000000	83.604	168.6816
240.000000	83.530	168.9340
243.000000	83.474	169.0999
247.000000	83.401	169.2843
250.000000	83.350	169.4127
254.000000	83.292	169.6128
258.000000	83.236	169.8654
262.000000	83.178	170.1587
265.000000	83.133	170.3999
269.000000	83.076	170.7199
272.000000	83.036	170.9480
276.000000	82.986	171.2482
280.000000	82.940	171.5542
285.000000	82.885	171.9442
290.000000	82.829	172.3463
295.000000	82.772	172.7369
300.000000	82.714	173.0941
304.000000	82.667	173.3657
307.000000	82.631	173.5742
311.000000	82.583	173.8787
315.000000	82.538	174.2195
320.000000	82.491	174.6671
325.000000	82.450	175.0840
330.000000	82.406	175.4690
335.000000	82.361	175.8589
340.000000	82.318	176.2625
345.000000	82.279	176.6513
350.000000	82.234	177.0305
355.000000	82.182	177.4413
360.000000	82.132	177.8798
365.000000	82.088	178.3141
370.000000	82.051	178.7168
375.000000	82.015	179.1010
382.000000	81.968	179.6788
387.000000	81.937	-179.8714
395.000000	81.892	-179.1629
400.000000	81.864	-178.7413
406.000000	81.829	-178.2424
412.000000	81.796	-177.7802
418.000000	81.766	-177.3383
425.000000	81.736	-176.7941
431.000000	81.709	-176.2940
437.000000	81.678	-175.7790
444.000000	81.642	-175.1989
450.000000	81.611	-174.7096
455.000000	81.586	-174.2976
462.000000	81.554	-173.7160
468.000000	81.530	-173.2145
475.000000	81.509	-172.6152
482.000000	81.493	-172.0176
487.000000	81.482	-171.6006
494.000000	81.463	-171.0154
500.000000	81.444	-170.5068
508.000000	81.426	-169.8558
515.000000	81.418	-169.3472
522.000000	81.414	-168.8765
530.000000	81.407	-168.3254
538.000000	81.395	-167.7481
545.000000	81.385	-167.2366
552.000000	81.374	-166.7135
560.000000	81.362	-166.1099
570.000000	81.348	-165.3726
580.000000	81.337	-164.6562
590.000000	81.328	-163.9343
600.000000	81.322	-163.1993
608.000000	81.323	-162.6416
615.000000	81.326	-162.1979
622.000000	81.327	-161.7886
630.000000	81.324	-161.3269
640.000000	81.318	-160.7011
650.000000	81.313	-160.0493
660.000000	81.310	-159.4086
670.000000	81.313	-158.7793
680.000000	81.321	-158.1692
690.000000	81.328	-157.5668
700.000000	81.334	-156.9653
710.000000	81.339	-156.3655
720.000000	81.337	-155.7691
730.000000	81.325	-155.1853
740.000000	81.311	-154.6009
750.000000	81.301	-154.0045
762.000000	81.290	-153.2543
775.000000	81.279	-152.3648
788.000000	81.270	-151.4394
800.000000	81.264	-150.6173
812.000000	81.264	-149.8137
825.000000	81.276	-148.9249
838.000000	81.296	-148.0258
850.000000	81.315	-147.2000
862.000000	81.331	-146.3768
875.000000	81.347	-145.4774
885.000000	81.361	-144.7791
900.000000	81.384	-143.7379
912.000000	81.403	-142.9139
925.000000	81.426	-142.0341
938.000000	81.458	-141.1947
950.000000	81.493	-140.4554
962.000000	81.533	-139.7251
975.000000	81.578	-138.9095
988.000000	81.627	-138.0764
1000.000000	81.680	-137.3206
1015.000000	81.759	-136.4132
1030.000000	81.839	-135.5809
1044.000000	81.909	-134.8762
1060.000000	81.982	-134.1138
1075.000000	82.047	-133.4329
1090.000000	82.110	-132.7825
1106.000000	82.177	-132.0954
1120.000000	82.233	-131.4877
1138.000000	82.309	-130.7048
1150.000000	82.365	-130.1917
1172.000000	82.473	-129.2769
1180.000000	82.515	-128.9500
1206.000000	82.660	-127.8998
1220.000000	82.745	-127.3627
1241.000000	82.880	-126.6270
1250.000000	82.941	-126.3295
1265.000000	83.047	-125.8365
1280.000000	83.156	-125.3276
1315.000000	83.397	-124.0727
1320.000000	83.426	-123.8902
1340.000000	83.515	-123.1598
1360.000000	83.560	-122.4265
1380.000000	83.572	-121.6836
1400.000000	83.571	-120.9302
1430.000000	83.600	-119.7677
1450.000000	83.655	-118.9973
1475.000000	83.762	-118.0525
1500.000000	83.902	-117.1431
1525.000000	84.069	-116.3286
1550.000000	84.251	-115.6345
1575.000000	84.432	-115.0114
1600.000000	84.606	-114.3991
1625.000000	84.771	-113.7839
1650.000000	84.931	-113.1527
1675.000000	85.093	-112.5177
1700.000000	85.260	-111.8933
1725.000000	85.437	-111.3175
1750.000000	85.626	-110.8054
1775.000000	85.820	-110.3753
1800.000000	86.015	-110.0334
1825.000000	86.208	-109.7494
1850.000000	86.396	-109.5362
1875.000000	86.577	-109.4212
1900.000000	86.747	-109.3905
1925.000000	86.906	-109.4080
1950.000000	87.057	-109.4482
1975.000000	87.203	-109.4993
2000.000000	87.344	-109.5476
2030.000000	87.512	-109.5944
2060.000000	87.679	-109.6456
2090.000000	87.843	-109.7260
2120.000000	88.003	-109.8310
2140.000000	88.111	-109.9210
2180.000000	88.328	-110.1764
2200.000000	88.435	-110.3331
2240.000000	88.643	-110.6715
2270.000000	88.794	-110.9368
2300.000000	88.945	-111.2166
2330.000000	89.098	-111.5121
2360.000000	89.248	-111.8394
2400.000000	89.438	-112.3390
2430.000000	89.576	-112.7662
2470.000000	89.754	-113.3932
2500.000000	89.882	-113.8942
2540.000000	90.045	-114.5842
2580.000000	90.205	-115.2996
2620.000000	90.366	-116.0680
2650.000000	90.482	-116.6947
2690.000000	90.627	-117.6102
2720.000000	90.727	-118.3455
2760.000000	90.848	-119.3603
2800.000000	90.959	-120.3972
2850.000000	91.077	-121.7250
2900.000000	91.173	-123.0524
2950.000000	91.260	-124.3696
3000.000000	91.336	-125.7216
3040.000000	91.382	-126.8217
3070.000000	91.407	-127.6414
3110.000000	91.432	-128.7098
3150.000000	91.452	-129.7503
3200.000000	91.472	-131.0221
3250.000000	91.483	-132.2461
3300.000000	91.483	-133.4163
3350.000000	91.469	-134.5554
3400.000000	91.438	-135.6695
3450.000000	91.394	-136.7476
3500.000000	91.341	-137.7906
3550.000000	91.280	-138.8066
3600.000000	91.215	-139.7901
3650.000000	91.146	-140.7264
3700.000000	91.079	-141.6129
3750.000000	91.019	-142.4559
3820.000000	90.948	-143.5550
3870.000000	90.904	-144.2649
3950.000000	90.843	-145.2902
4000.000000	90.801	-145.8826
4060.000000	90.743	-146.5704
4120.000000	90.675	-147.2680
4180.000000	90.601	-147.9789
4250.000000	90.507	-148.8339
4310.000000	90.423	-149.6243
4370.000000	90.341	-150.5064
4440.000000	90.252	-151.6551
4500.000000	90.184	-152.7338
4550.000000	90.129	-153.6925
4620.000000	90.050	-155.1304
4680.000000	89.969	-156.4482
4750.000000	89.850	-158.0587
4820.000000	89.694	-159.7242
4870.000000	89.556	-160.9265
4940.000000	89.326	-162.5812
5000.000000	89.090	-163.9361
5080.000000	88.715	-165.5966
5150.000000	88.332	-166.8252
5220.000000	87.899	-167.7256
5300.000000	87.353	-168.1821
5380.000000	86.776	-167.8843
5450.000000	86.279	-166.9480
5520.000000	85.829	-165.4034
5600.000000	85.413	-163.0574
5700.000000	85.077	-159.7451
5800.000000	84.934	-156.6174
5900.000000	84.931	-154.0523
6000.000000	85.001	-152.1118
6080.000000	85.072	-150.9220
6150.000000	85.133	-150.0641
6220.000000	85.192	-149.3268
6300.000000	85.259	-148.5926
6400.000000	85.347	-147.8006
6500.000000	85.451	-147.1215
6600.000000	85.581	-146.5420
6700.000000	85.751	-146.0851
6800.000000	85.970	-145.7816
6900.000000	86.243	-145.6870
7000.000000	86.579	-145.9040
7100.000000	86.989	-146.5620
7200.000000	87.479	-147.8185
7300.000000	88.048	-149.8604
7400.000000	88.678	-152.9183
7500.000000	89.331	-157.2231
7620.000000	90.044	-164.2593
7750.000000	90.542	-174.1281
7880.000000	90.544	174.3511
8000.000000	89.997	163.4250
8120.000000	88.925	153.4984
8250.000000	87.275	145.0306
8380.000000	85.295	139.6717
8500.000000	83.348	137.7297
8620.000000	81.447	138.5621
8750.000000	79.598	142.0819
8850.000000	78.403	146.0672
9000.000000	77.023	152.8823
9120.000000	76.233	158.2072
9250.000000	75.593	163.3486
9380.000000	75.084	167.7889
9500.000000	74.671	171.4292
9620.000000	74.287	174.8456
9750.000000	73.892	178.5260
9880.000000	73.528	-177.6445
10000.000000	73.237	-173.9394
10150.000000	72.948	-169.1166
10300.000000	72.740	-164.1239
10440.000000	72.615	-159.2965
10600.000000	72.563	-153.5261
10750.000000	72.634	-147.7842
10900.000000	72.867	-141.6647
11060.000000	73.357	-134.8279
11200.000000	74.041	-128.9096
11380.000000	75.295	-122.3262
11500.000000	76.322	-119.2763
11720.000000	78.350	-117.6854
11800.000000	79.052	-118.4081
12060.000000	80.938	-123.8097
12200.000000	81.728	-127.2644
12410.000000	82.885	-131.7028
12500.000000	83.452	-133.4153
12650.000000	84.534	-136.6398
12800.000000	85.727	-141.1247
13150.000000	88.154	-159.0779
13200.000000	88.393	-162.4233
13400.000000	88.997	-176.9544
13600.000000	89.077	167.9130
13800.000000	88.806	153.3234
14000.000000	88.365	139.5897
14300.000000	87.556	120.0154
14500.000000	86.878	107.3667
14750.000000	85.791	92.4071
15000.000000	84.464	79.0496
15250.000000	83.037	67.2520
15500.000000	81.624	56.0142
15750.000000	80.222	44.0426
16000.000000	78.688	30.9176
16250.000000	76.817	17.6045
16500.000000	74.501	5.8955
16750.000000	71.797	-2.6174
17000.000000	68.879	-7.1627
17250.000000	65.958	-7.7849
17500.000000	63.226	-5.1334
17750.000000	60.825	-0.1908
18000.000000	58.825	6.1174
18250.000000	57.221	13.1370
18500.000000	55.971	20.4178
18750.000000	55.010	27.6441
19000.000000	54.257	34.5638
19250.000000	53.609	41.2094
19500.000000	52.973	47.7204
19750.000000	52.360	53.7383
20000.000000	51.963	57.6688
