* Measurement data measured by REW V5.31.1
* Source: Microphone (4- USB Audio Device), MICROPHONE (Master Volume), R, volume: 0.250
* Format: 256k Log Swept Sine, 1 sweep at -12.0 dBFS with no timing reference
* Dated: 20-May-2024 11:31:04
* REW Settings:
*  C-weighting compensation: Off
*  Target level: 75.0 dB
* Note: 
* Measurement: Oppo Enco X2 (X Classic) L
* Smoothing: 1/12 octave
* Frequency Step: 1/48 octave
* Start Frequency: 20.300 Hz
*
* Freq(Hz)	SPL(dB)	Phase(degrees)
20.299999	73.648	103.4056
20.600000	73.723	102.4680
20.900000	73.821	101.2763
21.200001	73.931	99.9958
21.400000	74.009	99.1374
21.799999	74.168	97.4857
22.000000	74.249	96.7182
22.400000	74.408	95.3403
22.700001	74.526	94.4528
23.000000	74.641	93.6757
23.299999	74.752	92.9807
23.600000	74.859	92.3334
24.000000	74.992	91.4917
24.299999	75.086	90.8501
24.700001	75.202	89.9648
25.000000	75.285	89.2798
25.400000	75.393	88.3498
25.799999	75.502	87.4183
26.200001	75.610	86.5049
26.500000	75.692	85.8421
26.900000	75.799	84.9970
27.200001	75.879	84.3926
27.600000	75.985	83.6191
28.000000	76.089	82.8694
28.500000	76.215	81.9482
29.000000	76.335	81.0405
29.500000	76.446	80.1567
30.000000	76.551	79.3022
30.400000	76.630	78.6327
30.700001	76.686	78.1326
31.100000	76.755	77.4636
31.500000	76.817	76.7924
32.000000	76.885	75.9589
32.500000	76.948	75.1407
33.000000	77.008	74.3348
33.500000	77.068	73.5260
34.000000	77.131	72.7005
34.500000	77.194	71.8582
35.000000	77.257	71.0140
35.500000	77.321	70.1897
36.000000	77.385	69.4033
36.500000	77.448	68.6636
37.000000	77.508	67.9703
37.500000	77.561	67.3183
38.200001	77.624	66.4545
38.700001	77.663	65.8471
39.500000	77.726	64.8362
40.000000	77.765	64.1735
40.599998	77.812	63.3720
41.200001	77.861	62.5863
41.799999	77.909	61.8172
42.500000	77.958	60.9409
43.099998	77.991	60.2368
43.700001	78.018	59.6073
44.400002	78.047	58.9663
45.000000	78.073	58.4589
45.500000	78.097	58.0317
46.200001	78.130	57.3867
46.799999	78.158	56.7824
47.500000	78.189	56.0408
48.200001	78.217	55.2921
48.700001	78.232	54.7708
49.400002	78.241	54.0939
50.000000	78.238	53.5856
50.799999	78.228	52.9864
51.500000	78.221	52.4708
52.200001	78.215	51.9280
53.000000	78.209	51.2943
53.799999	78.201	50.6895
54.500000	78.195	50.2077
55.200001	78.191	49.7652
56.000000	78.186	49.2790
57.000000	78.172	48.6676
58.000000	78.145	48.0413
59.000000	78.114	47.4382
60.000000	78.100	46.9143
60.799999	78.104	46.5218
61.500000	78.112	46.1585
62.200001	78.115	45.7705
63.000000	78.106	45.3149
64.000000	78.073	44.7756
65.000000	78.021	44.3240
66.000000	77.964	43.9604
67.000000	77.912	43.6203
68.000000	77.866	43.2620
69.000000	77.826	42.8887
70.000000	77.792	42.4947
71.000000	77.760	42.0831
72.000000	77.717	41.7012
73.000000	77.662	41.3849
74.000000	77.603	41.0929
75.000000	77.547	40.7475
76.199997	77.478	40.2587
77.500000	77.395	39.7319
78.800003	77.303	39.2400
80.000000	77.212	38.7982
81.199997	77.116	38.3549
82.500000	77.005	37.8577
83.800003	76.892	37.3650
85.000000	76.791	36.9602
86.199997	76.686	36.5834
87.500000	76.557	36.1800
88.500000	76.444	35.8842
90.000000	76.260	35.4919
91.199997	76.104	35.2352
92.500000	75.928	35.0545
93.800003	75.751	34.9930
95.000000	75.593	34.9685
96.199997	75.440	34.9433
97.500000	75.274	34.9637
98.800003	75.106	35.0620
100.000000	74.956	35.2130
101.500000	74.780	35.4784
103.000000	74.605	35.8398
104.400002	74.435	36.2893
106.000000	74.241	36.9125
107.500000	74.072	37.5530
109.000000	73.916	38.2475
110.599998	73.754	39.0368
112.000000	73.611	39.7511
113.800003	73.427	40.7548
115.000000	73.305	41.4919
117.199997	73.082	42.9144
118.000000	73.003	43.4343
120.599998	72.773	45.0555
122.000000	72.666	45.9172
124.099998	72.524	47.2560
125.000000	72.468	47.8306
126.500000	72.375	48.7887
128.000000	72.277	49.7720
131.500000	72.044	52.1173
132.000000	72.015	52.4400
134.000000	71.912	53.6795
136.000000	71.830	54.8461
138.000000	71.752	55.9553
140.000000	71.675	57.0381
143.000000	71.560	58.6764
145.000000	71.482	59.8355
147.500000	71.388	61.3630
150.000000	71.296	62.9012
152.500000	71.198	64.4215
155.000000	71.091	65.9041
157.500000	70.984	67.3639
160.000000	70.888	68.8450
162.500000	70.807	70.3317
165.000000	70.737	71.7848
167.500000	70.664	73.1995
170.000000	70.580	74.5929
172.500000	70.489	76.0322
175.000000	70.396	77.5742
177.500000	70.307	79.2713
180.000000	70.230	81.1074
182.500000	70.177	82.9683
185.000000	70.148	84.7281
187.500000	70.139	86.3289
190.000000	70.138	87.7680
192.500000	70.137	89.0837
195.000000	70.130	90.3491
197.500000	70.122	91.6061
200.000000	70.117	92.8686
203.000000	70.111	94.4027
206.000000	70.089	95.9106
209.000000	70.050	97.3559
212.000000	70.001	98.7744
214.000000	69.967	99.7381
218.000000	69.901	101.7558
220.000000	69.874	102.8213
224.000000	69.827	105.0456
227.000000	69.789	106.7246
230.000000	69.748	108.3788
233.000000	69.708	110.0370
236.000000	69.678	111.7147
240.000000	69.659	113.9946
243.000000	69.653	115.7252
247.000000	69.635	118.0396
250.000000	69.611	119.7570
254.000000	69.581	121.9781
258.000000	69.568	124.1432
262.000000	69.570	126.2802
265.000000	69.575	127.8646
269.000000	69.576	129.9519
272.000000	69.574	131.4906
276.000000	69.574	133.5033
280.000000	69.580	135.4984
285.000000	69.595	138.0076
290.000000	69.619	140.4873
295.000000	69.648	142.9443
300.000000	69.689	145.3971
304.000000	69.732	147.3040
307.000000	69.766	148.6662
311.000000	69.811	150.4052
315.000000	69.852	152.1074
320.000000	69.896	154.2176
325.000000	69.927	156.3073
330.000000	69.956	158.3741
335.000000	69.990	160.3984
340.000000	70.035	162.3165
345.000000	70.082	164.1152
350.000000	70.123	165.8697
355.000000	70.162	167.6518
360.000000	70.209	169.5066
365.000000	70.262	171.3808
370.000000	70.310	173.1906
375.000000	70.349	174.9453
382.000000	70.398	177.3681
387.000000	70.430	179.1000
395.000000	70.466	-178.1020
400.000000	70.481	-176.3860
406.000000	70.498	-174.4228
412.000000	70.518	-172.4971
418.000000	70.549	-170.5823
425.000000	70.600	-168.3879
431.000000	70.647	-166.5101
437.000000	70.686	-164.5790
444.000000	70.713	-162.2391
450.000000	70.721	-160.1926
455.000000	70.722	-158.4817
462.000000	70.723	-156.1518
468.000000	70.731	-154.2759
475.000000	70.750	-152.1876
482.000000	70.780	-150.0541
487.000000	70.800	-148.4699
494.000000	70.821	-146.2137
500.000000	70.837	-144.2845
508.000000	70.853	-141.7514
515.000000	70.861	-139.5590
522.000000	70.865	-137.3566
530.000000	70.866	-134.8253
538.000000	70.866	-132.2656
545.000000	70.868	-129.9698
552.000000	70.868	-127.6172
560.000000	70.863	-124.9086
570.000000	70.854	-121.5437
580.000000	70.841	-118.2035
590.000000	70.825	-114.8924
600.000000	70.803	-111.6244
608.000000	70.782	-109.0139
615.000000	70.765	-106.7190
622.000000	70.750	-104.4338
630.000000	70.732	-101.8601
640.000000	70.710	-98.6638
650.000000	70.690	-95.4928
660.000000	70.670	-92.3595
670.000000	70.646	-89.2349
680.000000	70.619	-86.0760
690.000000	70.594	-82.8107
700.000000	70.573	-79.4624
710.000000	70.561	-76.1790
720.000000	70.560	-73.0304
730.000000	70.567	-69.9320
740.000000	70.569	-66.8107
750.000000	70.566	-63.6701
762.000000	70.558	-59.9444
775.000000	70.553	-55.9914
788.000000	70.553	-52.0156
800.000000	70.545	-48.2483
812.000000	70.534	-44.3926
825.000000	70.532	-40.2041
838.000000	70.535	-36.0780
850.000000	70.537	-32.3552
862.000000	70.543	-28.6987
875.000000	70.553	-24.7582
885.000000	70.562	-21.7051
900.000000	70.581	-17.0862
912.000000	70.608	-13.3501
925.000000	70.647	-9.2714
938.000000	70.692	-5.1812
950.000000	70.732	-1.3949
962.000000	70.769	2.3932
975.000000	70.809	6.4750
988.000000	70.852	10.4592
1000.000000	70.890	14.0115
1015.000000	70.925	18.3281
1030.000000	70.943	22.5986
1044.000000	70.963	26.5913
1060.000000	71.013	31.1404
1075.000000	71.088	35.3440
1090.000000	71.178	39.4603
1106.000000	71.273	43.7514
1120.000000	71.355	47.4331
1138.000000	71.458	52.0865
1150.000000	71.521	55.1403
1172.000000	71.627	60.6101
1180.000000	71.661	62.5458
1206.000000	71.753	68.6719
1220.000000	71.781	71.9347
1241.000000	71.793	76.8424
1250.000000	71.793	78.9612
1265.000000	71.795	82.5289
1280.000000	71.803	86.1501
1315.000000	71.865	94.6824
1320.000000	71.877	95.8992
1340.000000	71.932	100.7659
1360.000000	71.987	105.6248
1380.000000	72.038	110.4383
1400.000000	72.083	115.1899
1430.000000	72.141	122.1003
1450.000000	72.187	126.5328
1475.000000	72.249	131.9690
1500.000000	72.305	137.3614
1525.000000	72.358	142.7173
1550.000000	72.429	148.0240
1575.000000	72.506	153.3777
1600.000000	72.575	158.9013
1625.000000	72.641	164.6048
1650.000000	72.724	170.4722
1675.000000	72.834	176.4393
1700.000000	72.956	-177.5720
1725.000000	73.069	-171.5333
1750.000000	73.174	-165.4413
1775.000000	73.289	-159.3932
1800.000000	73.418	-153.5024
1825.000000	73.552	-147.8651
1850.000000	73.689	-142.4699
1875.000000	73.827	-137.2323
1900.000000	73.960	-132.0520
1925.000000	74.088	-126.8715
1950.000000	74.220	-121.6948
1975.000000	74.359	-116.5333
2000.000000	74.501	-111.3630
2030.000000	74.666	-105.1194
2060.000000	74.831	-98.9183
2090.000000	74.995	-92.8124
2120.000000	75.156	-86.7515
2140.000000	75.263	-82.7101
2180.000000	75.486	-74.6057
2200.000000	75.598	-70.5599
2240.000000	75.817	-62.5791
2270.000000	75.985	-56.7229
2300.000000	76.164	-51.0291
2330.000000	76.346	-45.5828
2360.000000	76.518	-40.3917
2400.000000	76.733	-33.8269
2430.000000	76.888	-29.1605
2470.000000	77.089	-23.2512
2500.000000	77.233	-19.0089
2540.000000	77.412	-13.5167
2580.000000	77.573	-8.1235
2620.000000	77.718	-2.7449
2650.000000	77.816	1.3182
2690.000000	77.928	6.8498
2720.000000	77.996	11.1699
2760.000000	78.065	17.2901
2800.000000	78.110	23.9000
2850.000000	78.140	32.6442
2900.000000	78.142	41.6010
2950.000000	78.117	50.6760
3000.000000	78.070	59.7941
3040.000000	78.011	67.1282
3070.000000	77.955	72.7444
3110.000000	77.873	80.4663
3150.000000	77.790	88.3790
3200.000000	77.687	98.2424
3250.000000	77.569	107.8550
3300.000000	77.434	117.3273
3350.000000	77.291	126.9698
3400.000000	77.156	136.9771
3450.000000	77.030	147.2084
3500.000000	76.906	157.3746
3550.000000	76.787	167.3245
3600.000000	76.676	176.9872
3650.000000	76.572	-173.7211
3700.000000	76.475	-164.7712
3750.000000	76.384	-156.0618
3820.000000	76.267	-144.2094
3870.000000	76.192	-135.9434
3950.000000	76.103	-123.0762
4000.000000	76.061	-115.4077
4060.000000	76.014	-106.6135
4120.000000	75.968	-98.2095
4180.000000	75.914	-90.1641
4250.000000	75.846	-80.9930
4310.000000	75.812	-73.1270
4370.000000	75.811	-65.4053
4440.000000	75.838	-56.7393
4500.000000	75.866	-49.5220
4550.000000	75.882	-43.6077
4620.000000	75.885	-35.4214
4680.000000	75.879	-28.3522
4750.000000	75.888	-19.8433
4820.000000	75.934	-11.0166
4870.000000	75.986	-4.6569
4940.000000	76.068	4.0864
5000.000000	76.133	11.4150
5080.000000	76.215	21.0905
5150.000000	76.289	29.4487
5220.000000	76.363	37.5471
5300.000000	76.441	46.3577
5380.000000	76.516	54.7244
5450.000000	76.579	61.7441
5520.000000	76.633	68.4764
5600.000000	76.673	75.7925
5700.000000	76.679	84.5250
5800.000000	76.618	93.1801
5900.000000	76.495	102.5129
6000.000000	76.369	113.0989
6080.000000	76.336	122.1404
6150.000000	76.374	129.8582
6220.000000	76.451	137.0302
6300.000000	76.558	144.4438
6400.000000	76.699	152.8053
6500.000000	76.865	160.9460
6600.000000	77.089	169.6752
6700.000000	77.391	179.0820
6800.000000	77.771	-171.4221
6900.000000	78.230	-162.5024
7000.000000	78.763	-154.5615
7100.000000	79.351	-147.7255
7200.000000	79.963	-142.0289
7300.000000	80.542	-137.6086
7400.000000	81.018	-134.5665
7500.000000	81.323	-132.8242
7620.000000	81.379	-131.9973
7750.000000	80.994	-131.7278
7880.000000	80.180	-130.8401
8000.000000	79.154	-128.4346
8120.000000	77.984	-123.9438
8250.000000	76.658	-116.8909
8380.000000	75.347	-108.0715
8500.000000	74.194	-98.5918
8620.000000	73.108	-88.1038
8750.000000	72.006	-76.0718
8850.000000	71.214	-66.5780
9000.000000	70.125	-52.4592
9120.000000	69.333	-41.7366
9250.000000	68.546	-30.6096
9380.000000	67.835	-19.2556
9500.000000	67.248	-7.9595
9620.000000	66.728	4.2200
9750.000000	66.237	18.1243
9880.000000	65.826	32.4111
10000.000000	65.521	45.5585
10150.000000	65.231	61.2958
10300.000000	65.030	76.1377
10440.000000	64.921	89.5251
10600.000000	64.898	104.8894
10750.000000	64.994	119.8635
10900.000000	65.221	135.1472
11060.000000	65.623	150.6920
11200.000000	66.120	162.7627
11380.000000	66.942	175.2219
11500.000000	67.594	-178.5613
11720.000000	68.967	-170.5541
11800.000000	69.507	-168.5284
12060.000000	71.291	-165.5941
12200.000000	72.211	-166.2266
12410.000000	73.494	-168.7489
12500.000000	74.009	-170.0435
12650.000000	74.824	-172.3242
12800.000000	75.584	-174.9492
13150.000000	76.896	175.0647
13200.000000	76.986	173.0565
13400.000000	76.984	164.0089
13600.000000	76.386	155.2954
13800.000000	75.466	149.6093
14000.000000	74.768	147.4712
14300.000000	74.522	145.5172
14500.000000	74.347	143.1713
14750.000000	73.700	141.2676
15000.000000	72.817	142.5409
15250.000000	72.155	146.9071
15500.000000	71.957	152.2325
15750.000000	72.076	156.0741
16000.000000	72.154	157.3451
16250.000000	71.895	156.6514
16500.000000	71.186	155.9160
16750.000000	70.075	156.9041
17000.000000	68.679	160.2753
17250.000000	67.165	166.6022
17500.000000	65.740	176.0065
17750.000000	64.591	-172.8671
18000.000000	63.844	-162.2255
18250.000000	63.554	-153.4172
18500.000000	63.659	-146.6639
18750.000000	64.001	-141.9762
19000.000000	64.420	-138.9745
19250.000000	64.796	-136.7621
19500.000000	65.082	-134.7339
19750.000000	65.276	-132.8702
20000.000000	65.377	-131.6517
