* Measurement data measured by REW V5.31.1
* Source: Microphone (4- USB Audio Device), MICROPHONE (Master Volume), R, volume: 0.250
* Format: 256k Log Swept Sine, 1 sweep at -12.0 dBFS with no timing reference
* Dated: 20-May-2024 11:31:46
* REW Settings:
*  C-weighting compensation: Off
*  Target level: 75.0 dB
* Note: 
* Measurement: Oppo Enco X2 (X Classic) R
* Smoothing: 1/12 octave
* Frequency Step: 1/48 octave
* Start Frequency: 20.300 Hz
*
* Freq(Hz)	SPL(dB)	Phase(degrees)
20.299999	73.946	102.0952
20.600000	74.007	101.2046
20.900000	74.088	100.0837
21.200001	74.183	98.8937
21.400000	74.253	98.1046
21.799999	74.406	96.6066
22.000000	74.487	95.9202
22.400000	74.657	94.7025
22.700001	74.785	93.9240
23.000000	74.911	93.2399
23.299999	75.031	92.6187
23.600000	75.142	92.0263
24.000000	75.274	91.2306
24.299999	75.364	90.6052
24.700001	75.476	89.7184
25.000000	75.557	89.0169
25.400000	75.668	88.0531
25.799999	75.783	87.0909
26.200001	75.901	86.1689
26.500000	75.990	85.5189
26.900000	76.107	84.7085
27.200001	76.192	84.1317
27.600000	76.299	83.3801
28.000000	76.395	82.6296
28.500000	76.501	81.6929
29.000000	76.595	80.7855
29.500000	76.687	79.9265
30.000000	76.782	79.1007
30.400000	76.857	78.4455
30.700001	76.911	77.9525
31.100000	76.978	77.2931
31.500000	77.039	76.6306
32.000000	77.111	75.7857
32.500000	77.180	74.9025
33.000000	77.245	73.9806
33.500000	77.305	73.0493
34.000000	77.361	72.1401
34.500000	77.419	71.2586
35.000000	77.479	70.3906
35.500000	77.536	69.5317
36.000000	77.589	68.6996
36.500000	77.638	67.9150
37.000000	77.686	67.1768
37.500000	77.734	66.4592
38.200001	77.801	65.4354
38.700001	77.844	64.6807
39.500000	77.901	63.4831
40.000000	77.932	62.7760
40.599998	77.970	61.9783
41.200001	78.013	61.2140
41.799999	78.059	60.4624
42.500000	78.112	59.6019
43.099998	78.157	58.8794
43.700001	78.197	58.1564
44.400002	78.231	57.3085
45.000000	78.248	56.6112
45.500000	78.260	56.0759
46.200001	78.281	55.3948
46.799999	78.306	54.8399
47.500000	78.341	54.1845
48.200001	78.374	53.5062
48.700001	78.393	53.0129
49.400002	78.412	52.3292
50.000000	78.418	51.7651
50.799999	78.411	51.0395
51.500000	78.395	50.4067
52.200001	78.374	49.7764
53.000000	78.359	49.0841
53.799999	78.359	48.4278
54.500000	78.358	47.8835
55.200001	78.348	47.3795
56.000000	78.329	46.8366
57.000000	78.310	46.1132
58.000000	78.296	45.3092
59.000000	78.281	44.4977
60.000000	78.263	43.6791
60.799999	78.247	43.0137
61.500000	78.230	42.4554
62.200001	78.213	41.9423
63.000000	78.195	41.4010
64.000000	78.171	40.7400
65.000000	78.139	40.0878
66.000000	78.098	39.4758
67.000000	78.054	38.8920
68.000000	78.014	38.3210
69.000000	77.980	37.7799
70.000000	77.946	37.2844
71.000000	77.906	36.8180
72.000000	77.857	36.3289
73.000000	77.800	35.8004
74.000000	77.733	35.2602
75.000000	77.660	34.7231
76.199997	77.566	34.1030
77.500000	77.460	33.5114
78.800003	77.352	32.9810
80.000000	77.258	32.5029
81.199997	77.180	32.0229
82.500000	77.105	31.4948
83.800003	77.019	30.9217
85.000000	76.921	30.3577
86.199997	76.813	29.8472
87.500000	76.683	29.4206
88.500000	76.568	29.1719
90.000000	76.375	28.8595
91.199997	76.216	28.6364
92.500000	76.046	28.4285
93.800003	75.878	28.2495
95.000000	75.725	28.1191
96.199997	75.575	28.0248
97.500000	75.412	27.9549
98.800003	75.244	27.9630
100.000000	75.086	28.0850
101.500000	74.893	28.3377
103.000000	74.708	28.5980
104.400002	74.542	28.8690
106.000000	74.359	29.3398
107.500000	74.194	29.9842
109.000000	74.027	30.7300
110.599998	73.845	31.5304
112.000000	73.694	32.2294
113.800003	73.516	33.1703
115.000000	73.404	33.8134
117.199997	73.212	34.9550
118.000000	73.146	35.3686
120.599998	72.938	36.7194
122.000000	72.833	37.4120
124.099998	72.696	38.4633
125.000000	72.643	38.9399
126.500000	72.554	39.7767
128.000000	72.459	40.6576
131.500000	72.233	42.8095
132.000000	72.205	43.1289
134.000000	72.107	44.4049
136.000000	72.013	45.6220
138.000000	71.917	46.7940
140.000000	71.821	47.9636
143.000000	71.683	49.6667
145.000000	71.606	50.7969
147.500000	71.529	52.2801
150.000000	71.453	53.7346
152.500000	71.359	55.1295
155.000000	71.260	56.4772
157.500000	71.173	57.8174
160.000000	71.096	59.2101
162.500000	71.025	60.6073
165.000000	70.951	61.9158
167.500000	70.871	63.1558
170.000000	70.785	64.4150
172.500000	70.699	65.7018
175.000000	70.617	67.0382
177.500000	70.538	68.4395
180.000000	70.458	69.8568
182.500000	70.375	71.2863
185.000000	70.294	72.7678
187.500000	70.223	74.2987
190.000000	70.163	75.8492
192.500000	70.110	77.4214
195.000000	70.062	79.0050
197.500000	70.021	80.5407
200.000000	69.985	81.9522
203.000000	69.948	83.4995
206.000000	69.919	85.0276
209.000000	69.900	86.6246
212.000000	69.885	88.3167
214.000000	69.874	89.4852
218.000000	69.867	91.8408
220.000000	69.872	92.9788
224.000000	69.883	95.1561
227.000000	69.875	96.7621
230.000000	69.852	98.3325
233.000000	69.830	99.8312
236.000000	69.812	101.2981
240.000000	69.785	103.2687
243.000000	69.762	104.7427
247.000000	69.735	106.7383
250.000000	69.717	108.2861
254.000000	69.695	110.3887
258.000000	69.679	112.5470
262.000000	69.672	114.7199
265.000000	69.669	116.2809
269.000000	69.667	118.2831
272.000000	69.667	119.7852
276.000000	69.668	121.8061
280.000000	69.675	123.7987
285.000000	69.700	126.2191
290.000000	69.737	128.5951
295.000000	69.774	130.9296
300.000000	69.807	133.2254
304.000000	69.836	135.0115
307.000000	69.859	136.2980
311.000000	69.890	137.9556
315.000000	69.916	139.6103
320.000000	69.947	141.7682
325.000000	69.983	143.9854
330.000000	70.023	146.2050
335.000000	70.064	148.4485
340.000000	70.110	150.6372
345.000000	70.157	152.6703
350.000000	70.211	154.6212
355.000000	70.269	156.6069
360.000000	70.323	158.6212
365.000000	70.364	160.6261
370.000000	70.392	162.6093
375.000000	70.414	164.5421
382.000000	70.439	167.1258
387.000000	70.456	168.9006
395.000000	70.498	171.7375
400.000000	70.535	173.5069
406.000000	70.581	175.5704
412.000000	70.623	177.5070
418.000000	70.653	179.3086
425.000000	70.680	-178.6293
431.000000	70.703	-176.7683
437.000000	70.724	-174.8292
444.000000	70.753	-172.6048
450.000000	70.783	-170.7669
455.000000	70.808	-169.2314
462.000000	70.841	-167.0540
468.000000	70.870	-165.2224
475.000000	70.903	-163.1329
482.000000	70.921	-161.0297
487.000000	70.922	-159.5220
494.000000	70.914	-157.4225
500.000000	70.905	-155.5920
508.000000	70.899	-153.0760
515.000000	70.901	-150.8307
522.000000	70.911	-148.5264
530.000000	70.927	-145.7579
538.000000	70.938	-142.9055
545.000000	70.944	-140.4478
552.000000	70.946	-138.0667
560.000000	70.945	-135.4265
570.000000	70.938	-132.2051
580.000000	70.921	-129.1536
590.000000	70.885	-126.2643
600.000000	70.854	-123.3278
608.000000	70.843	-120.9002
615.000000	70.833	-118.7481
622.000000	70.816	-116.5753
630.000000	70.788	-114.0441
640.000000	70.759	-110.8495
650.000000	70.741	-107.7474
660.000000	70.733	-104.6846
670.000000	70.724	-101.5545
680.000000	70.701	-98.2879
690.000000	70.677	-94.9279
700.000000	70.662	-91.4993
710.000000	70.659	-87.9459
720.000000	70.663	-84.1760
730.000000	70.659	-80.2172
740.000000	70.647	-76.2495
750.000000	70.639	-72.3452
762.000000	70.638	-67.7332
775.000000	70.632	-62.9031
788.000000	70.611	-58.2460
800.000000	70.584	-53.9973
812.000000	70.566	-49.7037
825.000000	70.564	-44.9817
838.000000	70.574	-40.2852
850.000000	70.584	-36.0769
862.000000	70.594	-31.9657
875.000000	70.608	-27.5680
885.000000	70.622	-24.2048
900.000000	70.643	-19.1248
912.000000	70.660	-15.0488
925.000000	70.679	-10.6196
938.000000	70.701	-6.1230
950.000000	70.735	-1.9297
962.000000	70.779	2.2463
975.000000	70.825	6.7081
988.000000	70.857	11.1000
1000.000000	70.880	15.1217
1015.000000	70.913	20.1423
1030.000000	70.954	25.1309
1044.000000	71.003	29.7839
1060.000000	71.080	35.1443
1075.000000	71.167	40.1456
1090.000000	71.256	45.0009
1106.000000	71.343	49.9788
1120.000000	71.410	54.2162
1138.000000	71.491	59.5660
1150.000000	71.545	63.0961
1172.000000	71.636	69.5716
1180.000000	71.667	71.9441
1206.000000	71.755	79.8176
1220.000000	71.784	84.2245
1241.000000	71.801	91.0939
1250.000000	71.805	94.1339
1265.000000	71.816	99.3221
1280.000000	71.841	104.6042
1315.000000	71.924	116.6259
1320.000000	71.935	118.2659
1340.000000	71.974	124.6389
1360.000000	72.013	130.7796
1380.000000	72.049	136.7653
1400.000000	72.081	142.6802
1430.000000	72.147	151.5249
1450.000000	72.196	157.4039
1475.000000	72.242	164.6924
1500.000000	72.282	171.9609
1525.000000	72.337	179.2733
1550.000000	72.406	-173.3832
1575.000000	72.478	-166.0285
1600.000000	72.544	-158.7531
1625.000000	72.608	-151.6034
1650.000000	72.685	-144.5541
1675.000000	72.783	-137.5199
1700.000000	72.889	-130.4096
1725.000000	72.995	-123.2036
1750.000000	73.108	-115.9388
1775.000000	73.230	-108.7151
1800.000000	73.368	-101.6794
1825.000000	73.511	-94.9455
1850.000000	73.645	-88.4886
1875.000000	73.777	-82.1663
1900.000000	73.919	-75.8923
1925.000000	74.068	-69.6712
1950.000000	74.220	-63.5339
1975.000000	74.376	-57.5166
2000.000000	74.531	-51.6369
2030.000000	74.711	-44.6691
2060.000000	74.885	-37.6552
2090.000000	75.057	-30.5533
2120.000000	75.229	-23.4690
2140.000000	75.343	-18.8311
2180.000000	75.553	-9.8486
2200.000000	75.652	-5.4902
2240.000000	75.858	2.9216
2270.000000	76.017	8.9041
2300.000000	76.180	14.6838
2330.000000	76.347	20.4016
2360.000000	76.509	26.1324
2400.000000	76.713	33.7946
2430.000000	76.864	39.5854
2470.000000	77.071	47.3465
2500.000000	77.224	53.0580
2540.000000	77.412	60.3203
2580.000000	77.579	67.2034
2620.000000	77.734	73.8041
2650.000000	77.835	78.5695
2690.000000	77.939	84.7347
2720.000000	77.998	89.3007
2760.000000	78.064	95.3510
2800.000000	78.118	101.3226
2850.000000	78.161	108.6937
2900.000000	78.175	116.0170
2950.000000	78.161	123.2942
3000.000000	78.116	130.5770
3040.000000	78.059	136.4646
3070.000000	78.009	140.8937
3110.000000	77.934	146.7550
3150.000000	77.853	152.5334
3200.000000	77.737	159.6672
3250.000000	77.600	166.7507
3300.000000	77.461	173.8367
3350.000000	77.325	-179.0514
3400.000000	77.190	-171.8268
3450.000000	77.059	-164.3767
3500.000000	76.931	-156.6968
3550.000000	76.805	-148.8374
3600.000000	76.688	-140.7766
3650.000000	76.586	-132.4708
3700.000000	76.499	-123.9978
3750.000000	76.418	-115.5454
3820.000000	76.305	-103.9998
3870.000000	76.232	-95.9900
3950.000000	76.134	-83.5042
4000.000000	76.086	-75.7441
4060.000000	76.047	-66.3691
4120.000000	76.015	-57.0159
4180.000000	75.972	-47.6615
4250.000000	75.914	-36.3182
4310.000000	75.884	-26.0282
4370.000000	75.887	-15.7257
4440.000000	75.913	-4.5156
4500.000000	75.934	4.2014
4550.000000	75.941	10.9347
4620.000000	75.930	19.8768
4680.000000	75.919	27.3741
4750.000000	75.924	36.0393
4820.000000	75.958	44.5188
4870.000000	76.000	50.4393
4940.000000	76.075	58.5872
5000.000000	76.142	65.4166
5080.000000	76.218	74.1307
5150.000000	76.279	81.3623
5220.000000	76.341	88.4180
5300.000000	76.414	96.4630
5380.000000	76.484	104.3220
5450.000000	76.538	110.8275
5520.000000	76.588	116.8962
5600.000000	76.634	123.2810
5700.000000	76.648	130.7703
5800.000000	76.605	138.4581
5900.000000	76.498	147.0148
6000.000000	76.381	156.6852
6080.000000	76.345	164.8036
6150.000000	76.372	171.7600
6220.000000	76.438	178.5402
6300.000000	76.539	-173.7761
6400.000000	76.684	-164.2521
6500.000000	76.858	-155.2042
6600.000000	77.076	-147.1144
6700.000000	77.356	-140.0507
6800.000000	77.715	-133.6451
6900.000000	78.167	-127.5935
7000.000000	78.698	-122.2742
7100.000000	79.287	-118.1826
7200.000000	79.916	-115.5642
7300.000000	80.530	-114.6791
7400.000000	81.049	-115.6010
7500.000000	81.399	-117.9500
7620.000000	81.507	-121.8361
7750.000000	81.179	-126.3352
7880.000000	80.408	-129.9722
8000.000000	79.405	-131.5262
8120.000000	78.246	-130.7526
8250.000000	76.925	-127.3906
8380.000000	75.612	-121.7866
8500.000000	74.451	-114.7725
8620.000000	73.359	-106.1578
8750.000000	72.252	-95.5973
8850.000000	71.453	-87.0604
9000.000000	70.345	-74.0320
9120.000000	69.540	-63.5947
9250.000000	68.744	-52.6212
9380.000000	68.023	-42.1490
9500.000000	67.420	-32.5919
9620.000000	66.876	-22.7841
9750.000000	66.354	-11.8662
9880.000000	65.911	-0.6727
10000.000000	65.580	9.9834
10150.000000	65.262	23.6014
10300.000000	65.043	37.1643
10440.000000	64.929	49.4944
10600.000000	64.913	62.9194
10750.000000	65.007	74.2993
10900.000000	65.216	84.2588
11060.000000	65.591	93.5983
11200.000000	66.062	101.1423
11380.000000	66.863	110.5652
11500.000000	67.503	116.6740
11720.000000	68.849	126.9514
11800.000000	69.376	130.2321
12060.000000	71.121	139.0413
12200.000000	72.029	142.8341
12410.000000	73.298	147.5824
12500.000000	73.808	149.2690
12650.000000	74.616	151.4219
12800.000000	75.369	152.4377
13150.000000	76.716	149.8351
13200.000000	76.823	149.0837
13400.000000	76.914	146.0444
13600.000000	76.423	144.5394
13800.000000	75.574	146.5574
14000.000000	74.866	151.1890
14300.000000	74.562	154.2145
14500.000000	74.388	152.1003
14750.000000	73.738	149.2817
15000.000000	72.807	150.6095
15250.000000	72.067	156.9702
15500.000000	71.816	165.2388
15750.000000	71.965	171.4614
16000.000000	72.143	173.8546
16250.000000	72.005	173.0454
16500.000000	71.412	171.0673
16750.000000	70.389	169.9065
17000.000000	69.045	170.8181
17250.000000	67.547	174.4313
17500.000000	66.104	-179.3308
17750.000000	64.916	-171.2194
18000.000000	64.121	-162.1783
18250.000000	63.767	-153.0383
18500.000000	63.806	-144.4352
18750.000000	64.109	-136.5745
19000.000000	64.517	-129.5956
19250.000000	64.900	-123.9584
19500.000000	65.195	-120.1583
19750.000000	65.397	-118.1517
20000.000000	65.500	-117.4015
