* Measurement data measured by REW V5.31.1
* Source: Microphone (4- USB Audio Device), MICROPHONE (Master Volume), R, volume: 0.250
* Format: 256k Log Swept Sine, 1 sweep at -12.0 dBFS with no timing reference
* Dated: 20-May-2024 11:34:13
* REW Settings:
*  C-weighting compensation: Off
*  Target level: 75.0 dB
* Note: 
* Measurement: Oppo Enco X2 (Dyn Real) L
* Smoothing: 1/12 octave
* Frequency Step: 1/48 octave
* Start Frequency: 20.300 Hz
*
* Freq(Hz)	SPL(dB)	Phase(degrees)
20.299999	73.996	97.6474
20.600000	74.061	96.6935
20.900000	74.151	95.5246
21.200001	74.256	94.3235
21.400000	74.333	93.5465
21.799999	74.498	92.0948
22.000000	74.584	91.4273
22.400000	74.758	90.2046
22.700001	74.886	89.3691
23.000000	75.009	88.5808
23.299999	75.125	87.8181
23.600000	75.234	87.0632
24.000000	75.368	86.0494
24.299999	75.462	85.2797
24.700001	75.585	84.2456
25.000000	75.676	83.4706
25.400000	75.800	82.4460
25.799999	75.924	81.4377
26.200001	76.047	80.4511
26.500000	76.134	79.7296
26.900000	76.244	78.7974
27.200001	76.321	78.1225
27.600000	76.418	77.2519
28.000000	76.511	76.4050
28.500000	76.624	75.3617
29.000000	76.732	74.3273
29.500000	76.833	73.3098
30.000000	76.926	72.3155
30.400000	76.996	71.5277
30.700001	77.048	70.9315
31.100000	77.115	70.1184
31.500000	77.180	69.2791
32.000000	77.259	68.2014
32.500000	77.335	67.1150
33.000000	77.410	66.0452
33.500000	77.483	65.0086
34.000000	77.554	64.0098
34.500000	77.624	63.0414
35.000000	77.693	62.0893
35.500000	77.759	61.1438
36.000000	77.820	60.2079
36.500000	77.873	59.2906
37.000000	77.920	58.3942
37.500000	77.961	57.5141
38.200001	78.012	56.3118
38.700001	78.049	55.4876
39.500000	78.121	54.2236
40.000000	78.170	53.4393
40.599998	78.224	52.4905
41.200001	78.265	51.5538
41.799999	78.298	50.6374
42.500000	78.336	49.5592
43.099998	78.371	48.6196
43.700001	78.408	47.7075
44.400002	78.456	46.7183
45.000000	78.503	45.9120
45.500000	78.540	45.2480
46.200001	78.582	44.3387
46.799999	78.609	43.6012
47.500000	78.630	42.7919
48.200001	78.641	42.0139
48.700001	78.645	41.4574
49.400002	78.652	40.6340
50.000000	78.664	39.8532
50.799999	78.681	38.7361
51.500000	78.690	37.8028
52.200001	78.692	37.0015
53.000000	78.695	36.2186
53.799999	78.701	35.4480
54.500000	78.706	34.7137
55.200001	78.704	33.9472
56.000000	78.692	33.1028
57.000000	78.669	32.1205
58.000000	78.643	31.1705
59.000000	78.623	30.2321
60.000000	78.613	29.2755
60.799999	78.606	28.4885
61.500000	78.597	27.7853
62.200001	78.587	27.0712
63.000000	78.568	26.2713
64.000000	78.534	25.3614
65.000000	78.493	24.5317
66.000000	78.448	23.7133
67.000000	78.406	22.9075
68.000000	78.366	22.1588
69.000000	78.327	21.4573
70.000000	78.281	20.7249
71.000000	78.222	19.9313
72.000000	78.157	19.0994
73.000000	78.094	18.2487
74.000000	78.036	17.4111
75.000000	77.982	16.6251
76.199997	77.912	15.7973
77.500000	77.817	15.0474
78.800003	77.707	14.3441
80.000000	77.602	13.6485
81.199997	77.493	12.9277
82.500000	77.373	12.1376
83.800003	77.253	11.3148
85.000000	77.142	10.5547
86.199997	77.020	9.8437
87.500000	76.874	9.1780
88.500000	76.758	8.7529
90.000000	76.581	8.2380
91.199997	76.435	7.8770
92.500000	76.269	7.4920
93.800003	76.093	7.1486
95.000000	75.922	6.9142
96.199997	75.744	6.7646
97.500000	75.541	6.7065
98.800003	75.332	6.7753
100.000000	75.142	6.9422
101.500000	74.919	7.2596
103.000000	74.716	7.6886
104.400002	74.537	8.1991
106.000000	74.342	8.9249
107.500000	74.172	9.7234
109.000000	74.012	10.6171
110.599998	73.845	11.6522
112.000000	73.702	12.6004
113.800003	73.531	13.8240
115.000000	73.427	14.6408
117.199997	73.269	16.1877
118.000000	73.224	16.7613
120.599998	73.098	18.6198
122.000000	73.033	19.6135
124.099998	72.937	21.1291
125.000000	72.901	21.8005
126.500000	72.850	22.9329
128.000000	72.812	24.0569
131.500000	72.763	26.5095
132.000000	72.759	26.8272
134.000000	72.748	28.0234
136.000000	72.739	29.1543
138.000000	72.741	30.2670
140.000000	72.765	31.3716
143.000000	72.837	32.9892
145.000000	72.898	34.0804
147.500000	72.976	35.4465
150.000000	73.051	36.6312
152.500000	73.130	37.5864
155.000000	73.214	38.5357
157.500000	73.295	39.4803
160.000000	73.377	40.2823
162.500000	73.465	40.9391
165.000000	73.550	41.5060
167.500000	73.631	42.0376
170.000000	73.711	42.5452
172.500000	73.781	43.0298
175.000000	73.837	43.4998
177.500000	73.892	43.9666
180.000000	73.954	44.4611
182.500000	74.026	44.9624
185.000000	74.110	45.3736
187.500000	74.207	45.7125
190.000000	74.307	46.0628
192.500000	74.407	46.4011
195.000000	74.506	46.6543
197.500000	74.598	46.8049
200.000000	74.680	46.9133
203.000000	74.772	47.1023
206.000000	74.860	47.3920
209.000000	74.945	47.7019
212.000000	75.035	47.9302
214.000000	75.099	48.0308
218.000000	75.230	48.1280
220.000000	75.296	48.1294
224.000000	75.417	48.0691
227.000000	75.491	47.9971
230.000000	75.547	47.9509
233.000000	75.592	47.9431
236.000000	75.636	47.9553
240.000000	75.684	48.0129
243.000000	75.706	48.0998
247.000000	75.727	48.2638
250.000000	75.744	48.3772
254.000000	75.767	48.4873
258.000000	75.786	48.5511
262.000000	75.800	48.5823
265.000000	75.811	48.6197
269.000000	75.822	48.6963
272.000000	75.825	48.7522
276.000000	75.823	48.8120
280.000000	75.814	48.8642
285.000000	75.798	48.9341
290.000000	75.788	49.0791
295.000000	75.789	49.3322
300.000000	75.788	49.5570
304.000000	75.780	49.6742
307.000000	75.772	49.7355
311.000000	75.758	49.7940
315.000000	75.739	49.8594
320.000000	75.712	49.9990
325.000000	75.685	50.2016
330.000000	75.656	50.4530
335.000000	75.624	50.7052
340.000000	75.592	50.9247
345.000000	75.562	51.1294
350.000000	75.537	51.4081
355.000000	75.517	51.7689
360.000000	75.498	52.1348
365.000000	75.470	52.5101
370.000000	75.427	52.9265
375.000000	75.373	53.3286
382.000000	75.310	53.7840
387.000000	75.282	54.0962
395.000000	75.237	54.6387
400.000000	75.202	54.9815
406.000000	75.154	55.3337
412.000000	75.103	55.6303
418.000000	75.058	55.9981
425.000000	75.026	56.5521
431.000000	75.006	57.0675
437.000000	74.971	57.5913
444.000000	74.912	58.2274
450.000000	74.856	58.8213
455.000000	74.809	59.3407
462.000000	74.745	60.0914
468.000000	74.697	60.7266
475.000000	74.648	61.4344
482.000000	74.590	62.1485
487.000000	74.540	62.6748
494.000000	74.463	63.4330
500.000000	74.401	64.0984
508.000000	74.327	65.0438
515.000000	74.265	65.9387
522.000000	74.204	66.8445
530.000000	74.135	67.8367
538.000000	74.069	68.8289
545.000000	74.012	69.7144
552.000000	73.956	70.6205
560.000000	73.886	71.7022
570.000000	73.785	73.0807
580.000000	73.680	74.4667
590.000000	73.574	75.9585
600.000000	73.469	77.5847
608.000000	73.385	78.9442
615.000000	73.313	80.1531
622.000000	73.245	81.3600
630.000000	73.171	82.7111
640.000000	73.083	84.3346
650.000000	72.985	85.8829
660.000000	72.866	87.3318
670.000000	72.748	88.6444
680.000000	72.647	89.9350
690.000000	72.563	91.2639
700.000000	72.490	92.5572
710.000000	72.409	93.7788
720.000000	72.317	94.9318
730.000000	72.224	96.0032
740.000000	72.144	96.9863
750.000000	72.079	97.9920
762.000000	72.011	99.3850
775.000000	71.931	101.0843
788.000000	71.846	102.8251
800.000000	71.759	104.4001
812.000000	71.669	105.8984
825.000000	71.587	107.5170
838.000000	71.523	109.2716
850.000000	71.472	111.0119
862.000000	71.424	112.7803
875.000000	71.373	114.6689
885.000000	71.339	116.1086
900.000000	71.296	118.2735
912.000000	71.268	120.0324
925.000000	71.245	121.9721
938.000000	71.222	123.9450
950.000000	71.199	125.7779
962.000000	71.177	127.5752
975.000000	71.162	129.4107
988.000000	71.155	131.1145
1000.000000	71.145	132.6398
1015.000000	71.117	134.5896
1030.000000	71.078	136.6800
1044.000000	71.051	138.8020
1060.000000	71.046	141.3999
1075.000000	71.062	143.8595
1090.000000	71.088	146.1882
1106.000000	71.126	148.4969
1120.000000	71.168	150.4286
1138.000000	71.225	152.8870
1150.000000	71.257	154.5530
1172.000000	71.291	157.7336
1180.000000	71.297	158.9351
1206.000000	71.297	162.8849
1220.000000	71.285	164.9966
1241.000000	71.247	168.2613
1250.000000	71.226	169.7474
1265.000000	71.192	172.3509
1280.000000	71.162	175.0693
1315.000000	71.138	-178.5102
1320.000000	71.140	-177.6207
1340.000000	71.149	-174.2219
1360.000000	71.145	-171.0970
1380.000000	71.133	-168.1263
1400.000000	71.123	-165.1747
1430.000000	71.107	-160.7321
1450.000000	71.096	-157.7758
1475.000000	71.099	-154.0683
1500.000000	71.122	-150.3641
1525.000000	71.156	-146.7308
1550.000000	71.192	-143.1778
1575.000000	71.228	-139.6196
1600.000000	71.265	-135.9247
1625.000000	71.307	-132.1483
1650.000000	71.350	-128.4038
1675.000000	71.392	-124.6219
1700.000000	71.447	-120.7453
1725.000000	71.522	-116.8131
1750.000000	71.615	-112.8905
1775.000000	71.717	-109.0240
1800.000000	71.828	-105.2455
1825.000000	71.945	-101.5406
1850.000000	72.072	-97.9024
1875.000000	72.210	-94.3442
1900.000000	72.346	-90.8804
1925.000000	72.474	-87.5234
1950.000000	72.598	-84.2826
1975.000000	72.725	-81.1300
2000.000000	72.855	-78.0099
2030.000000	73.017	-74.2744
2060.000000	73.182	-70.5535
2090.000000	73.346	-66.8137
2120.000000	73.512	-63.0739
2140.000000	73.626	-60.5880
2180.000000	73.856	-55.6354
2200.000000	73.965	-53.2091
2240.000000	74.173	-48.5872
2270.000000	74.338	-45.3807
2300.000000	74.509	-42.4538
2330.000000	74.675	-39.8111
2360.000000	74.837	-37.4086
2400.000000	75.064	-34.4926
2430.000000	75.239	-32.4680
2470.000000	75.472	-29.9587
2500.000000	75.639	-28.2289
2540.000000	75.848	-26.1591
2580.000000	76.044	-24.4044
2620.000000	76.223	-22.9746
2650.000000	76.344	-22.0876
2690.000000	76.486	-21.1095
2720.000000	76.577	-20.5646
2760.000000	76.670	-20.1996
2800.000000	76.732	-20.2509
2850.000000	76.783	-20.6167
2900.000000	76.807	-20.9901
2950.000000	76.795	-21.1320
3000.000000	76.756	-20.8435
3040.000000	76.717	-20.2168
3070.000000	76.687	-19.5328
3110.000000	76.645	-18.4597
3150.000000	76.592	-17.3881
3200.000000	76.508	-16.1797
3250.000000	76.409	-15.0328
3300.000000	76.299	-13.8459
3350.000000	76.188	-12.5656
3400.000000	76.081	-11.1869
3450.000000	75.976	-9.7736
3500.000000	75.875	-8.4896
3550.000000	75.773	-7.4768
3600.000000	75.670	-6.6499
3650.000000	75.577	-5.7219
3700.000000	75.503	-4.4474
3750.000000	75.446	-2.7786
3820.000000	75.388	-0.0101
3870.000000	75.351	2.0580
3950.000000	75.290	4.9722
4000.000000	75.252	6.2482
4060.000000	75.215	7.1482
4120.000000	75.189	7.5106
4180.000000	75.166	7.4975
4250.000000	75.137	7.1791
4310.000000	75.120	6.8391
4370.000000	75.135	6.5014
4440.000000	75.191	6.0333
4500.000000	75.241	5.4828
4550.000000	75.269	4.8773
4620.000000	75.285	3.8832
4680.000000	75.290	2.9935
4750.000000	75.310	1.9110
4820.000000	75.362	0.7755
4870.000000	75.421	-0.0663
4940.000000	75.519	-1.3546
5000.000000	75.602	-2.5873
5080.000000	75.701	-4.2568
5150.000000	75.788	-5.5579
5220.000000	75.873	-6.7169
5300.000000	75.965	-7.9599
5380.000000	76.051	-9.1252
5450.000000	76.127	-10.1267
5520.000000	76.200	-11.2733
5600.000000	76.262	-12.9532
5700.000000	76.292	-15.4709
5800.000000	76.268	-17.9585
5900.000000	76.185	-20.0204
6000.000000	76.078	-21.3030
6080.000000	76.041	-21.8259
6150.000000	76.075	-22.2364
6220.000000	76.155	-22.8521
6300.000000	76.270	-23.8746
6400.000000	76.433	-25.5198
6500.000000	76.619	-27.5857
6600.000000	76.848	-29.9550
6700.000000	77.145	-32.2446
6800.000000	77.521	-34.1336
6900.000000	77.980	-35.5403
7000.000000	78.515	-36.6206
7100.000000	79.108	-37.7453
7200.000000	79.724	-39.3647
7300.000000	80.309	-41.7271
7400.000000	80.802	-44.7668
7500.000000	81.132	-48.2343
7620.000000	81.228	-52.5196
7750.000000	80.898	-56.9234
7880.000000	80.138	-60.9666
8000.000000	79.149	-64.5483
8120.000000	77.996	-68.1365
8250.000000	76.674	-71.8095
8380.000000	75.362	-74.6887
8500.000000	74.205	-76.1051
8620.000000	73.121	-76.2238
8750.000000	72.030	-75.3013
8850.000000	71.245	-74.0842
9000.000000	70.160	-71.5005
9120.000000	69.373	-68.6198
9250.000000	68.596	-64.4752
9380.000000	67.887	-59.2186
9500.000000	67.293	-53.3751
9620.000000	66.761	-46.8169
9750.000000	66.251	-39.4376
9880.000000	65.813	-32.2965
10000.000000	65.480	-26.1771
10150.000000	65.156	-19.0969
10300.000000	64.941	-12.0998
10440.000000	64.838	-5.1007
10600.000000	64.832	3.6890
10750.000000	64.937	12.4790
10900.000000	65.153	21.3782
11060.000000	65.519	30.9940
11200.000000	65.980	39.9080
11380.000000	66.781	51.8156
11500.000000	67.433	59.1064
11720.000000	68.809	68.5698
11800.000000	69.350	70.3683
12060.000000	71.161	70.2966
12200.000000	72.119	67.1757
12410.000000	73.471	59.6650
12500.000000	74.014	55.7505
12650.000000	74.868	48.7150
12800.000000	75.656	41.3199
13150.000000	77.029	23.4244
13200.000000	77.130	20.7665
13400.000000	77.167	10.0860
13600.000000	76.574	0.9221
13800.000000	75.568	-4.0084
14000.000000	74.681	-3.9739
14300.000000	74.306	-1.5041
14500.000000	74.238	-2.2620
14750.000000	73.741	-4.7178
15000.000000	72.894	-5.7838
15250.000000	72.147	-3.9290
15500.000000	71.823	-0.6268
15750.000000	71.873	1.6096
16000.000000	71.982	2.4003
16250.000000	71.835	2.6361
16500.000000	71.270	3.3243
16750.000000	70.297	5.3295
17000.000000	69.008	8.6410
17250.000000	67.552	13.1960
17500.000000	66.132	19.5343
17750.000000	64.944	28.3362
18000.000000	64.132	39.9929
18250.000000	63.764	54.1364
18500.000000	63.800	69.1704
18750.000000	64.097	83.0343
19000.000000	64.486	94.5226
19250.000000	64.839	103.8800
19500.000000	65.108	111.9060
19750.000000	65.296	118.4434
20000.000000	65.397	122.2042
