* Measurement data measured by REW V5.31.1
* Source: Microphone (4- USB Audio Device), MICROPHONE (Master Volume), R, volume: 0.250
* Format: 256k Log Swept Sine, 1 sweep at -12.0 dBFS with no timing reference
* Dated: 20-May-2024 11:34:39
* REW Settings:
*  C-weighting compensation: Off
*  Target level: 75.0 dB
* Note: 
* Measurement: Oppo Enco X2 (Dyn Real) R
* Smoothing: 1/12 octave
* Frequency Step: 1/48 octave
* Start Frequency: 20.300 Hz
*
* Freq(Hz)	SPL(dB)	Phase(degrees)
20.299999	73.950	85.5367
20.600000	74.020	84.3985
20.900000	74.114	82.9859
21.200001	74.225	81.5131
21.400000	74.306	80.5490
21.799999	74.479	78.7266
22.000000	74.569	77.8823
22.400000	74.748	76.3372
22.700001	74.877	75.2943
23.000000	74.999	74.3291
23.299999	75.113	73.4146
23.600000	75.219	72.5227
24.000000	75.348	71.3285
24.299999	75.438	70.4130
24.700001	75.554	69.1629
25.000000	75.640	68.2120
25.400000	75.758	66.9427
25.799999	75.879	65.6870
26.200001	76.000	64.4557
26.500000	76.087	63.5546
26.900000	76.197	62.3926
27.200001	76.273	61.5564
27.600000	76.369	60.4892
28.000000	76.462	59.4623
28.500000	76.582	58.1918
29.000000	76.703	56.8879
29.500000	76.819	55.5394
30.000000	76.922	54.1791
30.400000	76.994	53.1087
30.700001	77.044	52.3210
31.100000	77.107	51.2824
31.500000	77.170	50.2390
32.000000	77.249	48.9012
32.500000	77.327	47.5219
33.000000	77.402	46.1292
33.500000	77.474	44.7654
34.000000	77.541	43.4611
34.500000	77.605	42.2226
35.000000	77.667	41.0339
35.500000	77.727	39.8648
36.000000	77.787	38.6828
36.500000	77.845	37.4682
37.000000	77.902	36.2260
37.500000	77.956	34.9824
38.200001	78.030	33.2905
38.700001	78.081	32.1283
39.500000	78.157	30.3258
40.000000	78.197	29.2234
40.599998	78.239	27.9216
41.200001	78.281	26.6370
41.799999	78.325	25.3628
42.500000	78.375	23.8875
43.099998	78.412	22.6313
43.700001	78.442	21.3790
44.400002	78.472	19.9270
45.000000	78.500	18.7047
45.500000	78.529	17.7105
46.200001	78.575	16.3564
46.799999	78.610	15.2186
47.500000	78.633	13.8977
48.200001	78.634	12.5797
48.700001	78.628	11.6495
49.400002	78.624	10.3728
50.000000	78.634	9.2994
50.799999	78.658	7.8980
51.500000	78.674	6.7148
52.200001	78.680	5.5680
53.000000	78.676	4.2526
53.799999	78.668	2.8818
54.500000	78.664	1.6254
55.200001	78.662	0.3334
56.000000	78.656	-1.1341
57.000000	78.641	-2.8685
58.000000	78.619	-4.4886
59.000000	78.597	-6.0672
60.000000	78.581	-7.6611
60.799999	78.570	-8.9666
61.500000	78.559	-10.1153
62.200001	78.542	-11.2334
63.000000	78.518	-12.4443
64.000000	78.487	-13.8765
65.000000	78.454	-15.2833
66.000000	78.421	-16.7103
67.000000	78.391	-18.1708
68.000000	78.365	-19.6698
69.000000	78.332	-21.1761
70.000000	78.286	-22.6236
71.000000	78.230	-23.9860
72.000000	78.169	-25.2926
73.000000	78.109	-26.5944
74.000000	78.049	-27.9369
75.000000	77.988	-29.3246
76.199997	77.909	-30.9733
77.500000	77.814	-32.6538
78.800003	77.709	-34.2739
80.000000	77.610	-35.8078
81.199997	77.511	-37.3814
82.500000	77.401	-39.0484
83.800003	77.288	-40.6741
85.000000	77.175	-42.1573
86.199997	77.053	-43.5802
87.500000	76.909	-45.0246
88.500000	76.792	-46.0887
90.000000	76.612	-47.6453
91.199997	76.462	-48.8293
92.500000	76.292	-50.0199
93.800003	76.108	-51.1253
95.000000	75.924	-52.0734
96.199997	75.727	-52.9427
97.500000	75.507	-53.8032
98.800003	75.295	-54.6141
100.000000	75.116	-55.3515
101.500000	74.914	-56.2422
103.000000	74.725	-56.9699
104.400002	74.552	-57.4438
106.000000	74.355	-57.8321
107.500000	74.169	-58.0985
109.000000	73.994	-58.2846
110.599998	73.825	-58.4259
112.000000	73.683	-58.4894
113.800003	73.508	-58.4586
115.000000	73.403	-58.3659
117.199997	73.236	-58.1694
118.000000	73.181	-58.1216
120.599998	73.023	-58.0106
122.000000	72.956	-57.9305
124.099998	72.880	-57.7445
125.000000	72.854	-57.6536
126.500000	72.821	-57.5184
128.000000	72.796	-57.4328
131.500000	72.753	-57.4327
132.000000	72.749	-57.4470
134.000000	72.742	-57.5409
136.000000	72.751	-57.6608
138.000000	72.764	-57.7832
140.000000	72.773	-57.9084
143.000000	72.804	-58.0823
145.000000	72.847	-58.2487
147.500000	72.913	-58.5175
150.000000	72.986	-58.7428
152.500000	73.067	-58.9287
155.000000	73.159	-59.2251
157.500000	73.262	-59.5901
160.000000	73.362	-59.9429
162.500000	73.452	-60.3387
165.000000	73.539	-60.8144
167.500000	73.629	-61.3486
170.000000	73.717	-61.9458
172.500000	73.794	-62.5774
175.000000	73.860	-63.1957
177.500000	73.922	-63.7977
180.000000	73.987	-64.4607
182.500000	74.057	-65.2020
185.000000	74.130	-65.9301
187.500000	74.210	-66.6007
190.000000	74.307	-67.2549
192.500000	74.412	-67.9583
195.000000	74.512	-68.7666
197.500000	74.600	-69.6742
200.000000	74.677	-70.6324
203.000000	74.763	-71.8293
206.000000	74.851	-73.0660
209.000000	74.941	-74.2928
212.000000	75.035	-75.5117
214.000000	75.103	-76.3441
218.000000	75.240	-78.0988
220.000000	75.304	-79.0265
224.000000	75.414	-80.9907
227.000000	75.485	-82.5194
230.000000	75.552	-84.0323
233.000000	75.616	-85.4810
236.000000	75.668	-86.8748
240.000000	75.712	-88.6961
243.000000	75.731	-90.0728
247.000000	75.754	-91.9341
250.000000	75.768	-93.3201
254.000000	75.781	-95.1250
258.000000	75.790	-96.9086
262.000000	75.800	-98.7026
265.000000	75.806	-100.0508
269.000000	75.809	-101.8317
272.000000	75.808	-103.1423
276.000000	75.807	-104.8540
280.000000	75.811	-106.5284
285.000000	75.812	-108.6065
290.000000	75.802	-110.6698
295.000000	75.785	-112.6777
300.000000	75.771	-114.6360
304.000000	75.762	-116.1553
307.000000	75.756	-117.2749
311.000000	75.747	-118.7848
315.000000	75.732	-120.3402
320.000000	75.703	-122.3303
325.000000	75.673	-124.3344
330.000000	75.646	-126.2710
335.000000	75.623	-128.0566
340.000000	75.603	-129.7172
345.000000	75.580	-131.3723
350.000000	75.552	-133.0788
355.000000	75.525	-134.8044
360.000000	75.497	-136.5435
365.000000	75.469	-138.3294
370.000000	75.438	-140.1738
375.000000	75.403	-142.0368
382.000000	75.347	-144.6395
387.000000	75.304	-146.4909
395.000000	75.238	-149.3140
400.000000	75.208	-150.9738
406.000000	75.174	-152.8864
412.000000	75.130	-154.7711
418.000000	75.080	-156.6868
425.000000	75.025	-158.9825
431.000000	74.986	-160.9612
437.000000	74.951	-162.8652
444.000000	74.900	-164.9637
450.000000	74.848	-166.7029
455.000000	74.803	-168.1661
462.000000	74.747	-170.2794
468.000000	74.701	-172.1410
475.000000	74.639	-174.3334
482.000000	74.566	-176.5249
487.000000	74.514	-178.1047
494.000000	74.446	179.6579
500.000000	74.396	177.7463
508.000000	74.339	175.3069
515.000000	74.291	173.2800
522.000000	74.239	171.2823
530.000000	74.166	168.9848
538.000000	74.079	166.7217
545.000000	74.004	164.8210
552.000000	73.934	163.0115
560.000000	73.859	161.0651
570.000000	73.764	158.7698
580.000000	73.672	156.5827
590.000000	73.583	154.4787
600.000000	73.494	152.3639
608.000000	73.415	150.6148
615.000000	73.342	149.0757
622.000000	73.269	147.5617
630.000000	73.191	145.8615
640.000000	73.098	143.7523
650.000000	72.996	141.7154
660.000000	72.888	139.8089
670.000000	72.790	137.9319
680.000000	72.701	135.9899
690.000000	72.618	134.0073
700.000000	72.534	132.0055
710.000000	72.446	129.9893
720.000000	72.356	128.0297
730.000000	72.269	126.1621
740.000000	72.191	124.3561
750.000000	72.117	122.5755
762.000000	72.024	120.4516
775.000000	71.928	118.1214
788.000000	71.849	115.7222
800.000000	71.784	113.5178
812.000000	71.718	111.4513
825.000000	71.645	109.3850
838.000000	71.576	107.4102
850.000000	71.519	105.5941
862.000000	71.470	103.7253
875.000000	71.423	101.6229
885.000000	71.391	99.9831
900.000000	71.348	97.5511
912.000000	71.315	95.6481
925.000000	71.278	93.6302
938.000000	71.246	91.6864
950.000000	71.223	89.9697
962.000000	71.202	88.3000
975.000000	71.175	86.4909
988.000000	71.143	84.6678
1000.000000	71.114	83.0062
1015.000000	71.081	80.9556
1030.000000	71.051	78.8954
1044.000000	71.031	77.0206
1060.000000	71.023	75.0069
1075.000000	71.038	73.2074
1090.000000	71.076	71.4061
1106.000000	71.132	69.3931
1120.000000	71.185	67.5284
1138.000000	71.247	65.0059
1150.000000	71.278	63.3159
1172.000000	71.306	60.3540
1180.000000	71.310	59.3078
1206.000000	71.312	55.8601
1220.000000	71.303	53.9481
1241.000000	71.265	51.1010
1250.000000	71.240	49.9270
1265.000000	71.198	48.0453
1280.000000	71.162	46.2380
1315.000000	71.118	42.1306
1320.000000	71.116	41.5410
1340.000000	71.111	39.1602
1360.000000	71.110	36.7636
1380.000000	71.106	34.3838
1400.000000	71.102	32.0644
1430.000000	71.105	28.7374
1450.000000	71.111	26.6022
1475.000000	71.113	24.0521
1500.000000	71.114	21.5328
1525.000000	71.127	19.0670
1550.000000	71.151	16.8223
1575.000000	71.185	14.7174
1600.000000	71.230	12.6196
1625.000000	71.283	10.4703
1650.000000	71.338	8.3266
1675.000000	71.406	6.2581
1700.000000	71.486	4.2397
1725.000000	71.566	2.2546
1750.000000	71.648	0.4183
1775.000000	71.737	-1.1390
1800.000000	71.833	-2.4609
1825.000000	71.941	-3.6796
1850.000000	72.064	-4.8616
1875.000000	72.196	-6.0555
1900.000000	72.330	-7.2988
1925.000000	72.463	-8.5554
1950.000000	72.592	-9.8022
1975.000000	72.719	-11.0125
2000.000000	72.845	-12.0813
2030.000000	73.000	-13.0457
2060.000000	73.161	-13.7626
2090.000000	73.326	-14.4669
2120.000000	73.493	-15.2699
2140.000000	73.603	-15.8170
2180.000000	73.816	-16.8066
2200.000000	73.919	-17.2462
2240.000000	74.130	-18.0509
2270.000000	74.297	-18.6708
2300.000000	74.470	-19.3094
2330.000000	74.647	-19.9039
2360.000000	74.826	-20.4337
2400.000000	75.062	-21.0817
2430.000000	75.234	-21.5353
2470.000000	75.457	-22.0259
2500.000000	75.619	-22.2791
2540.000000	75.826	-22.5546
2580.000000	76.015	-22.9874
2620.000000	76.188	-23.7298
2650.000000	76.308	-24.4924
2690.000000	76.452	-25.8183
2720.000000	76.542	-27.1068
2760.000000	76.640	-29.1867
2800.000000	76.721	-31.4623
2850.000000	76.792	-34.3771
2900.000000	76.818	-37.4669
2950.000000	76.812	-40.7410
3000.000000	76.789	-44.0524
3040.000000	76.757	-46.7369
3070.000000	76.721	-48.7687
3110.000000	76.658	-51.4392
3150.000000	76.589	-54.0028
3200.000000	76.499	-57.0743
3250.000000	76.400	-59.9719
3300.000000	76.292	-62.4954
3350.000000	76.185	-64.5248
3400.000000	76.077	-66.1690
3450.000000	75.969	-67.5451
3500.000000	75.866	-68.6731
3550.000000	75.767	-69.5002
3600.000000	75.678	-69.9054
3650.000000	75.601	-69.8525
3700.000000	75.530	-69.4918
3750.000000	75.460	-69.0435
3820.000000	75.364	-68.4788
3870.000000	75.310	-67.8867
3950.000000	75.259	-66.0842
4000.000000	75.249	-64.5547
4060.000000	75.245	-62.7610
4120.000000	75.235	-61.3520
4180.000000	75.209	-60.4720
4250.000000	75.159	-60.0090
4310.000000	75.130	-59.8794
4370.000000	75.136	-59.9333
4440.000000	75.177	-60.1592
4500.000000	75.219	-60.3047
4550.000000	75.248	-60.3195
4620.000000	75.270	-60.1512
4680.000000	75.282	-59.7902
4750.000000	75.312	-59.1660
4820.000000	75.375	-58.5589
4870.000000	75.438	-58.3092
4940.000000	75.539	-58.3682
5000.000000	75.619	-58.6865
5080.000000	75.717	-58.9899
5150.000000	75.801	-58.8754
5220.000000	75.883	-58.5859
5300.000000	75.970	-58.4766
5380.000000	76.047	-58.7007
5450.000000	76.108	-58.9301
5520.000000	76.167	-58.9598
5600.000000	76.231	-58.5679
5700.000000	76.285	-57.1788
5800.000000	76.288	-54.7363
5900.000000	76.216	-51.5681
6000.000000	76.103	-47.6154
6080.000000	76.059	-43.9163
6150.000000	76.085	-40.7426
6220.000000	76.161	-37.9895
6300.000000	76.274	-35.4241
6400.000000	76.429	-32.6210
6500.000000	76.611	-29.6490
6600.000000	76.842	-26.2923
6700.000000	77.137	-22.6246
6800.000000	77.511	-18.9140
6900.000000	77.971	-15.6309
7000.000000	78.510	-13.2678
7100.000000	79.104	-12.0541
7200.000000	79.727	-11.8537
7300.000000	80.328	-12.5497
7400.000000	80.831	-14.1882
7500.000000	81.161	-16.6692
7620.000000	81.248	-20.0594
7750.000000	80.909	-22.7764
7880.000000	80.153	-23.0709
8000.000000	79.176	-20.8664
8120.000000	78.040	-17.0331
8250.000000	76.730	-12.3571
8380.000000	75.422	-7.6366
8500.000000	74.267	-2.8999
8620.000000	73.174	2.7453
8750.000000	72.069	10.6436
8850.000000	71.284	18.2645
9000.000000	70.205	31.7077
9120.000000	69.416	43.4765
9250.000000	68.633	56.7649
9380.000000	67.918	70.3340
9500.000000	67.315	82.8020
9620.000000	66.772	95.1296
9750.000000	66.256	108.5423
9880.000000	65.817	122.2940
10000.000000	65.484	135.4264
10150.000000	65.162	152.5662
10300.000000	64.950	170.7042
10440.000000	64.846	-171.5563
10600.000000	64.836	-150.6021
10750.000000	64.935	-130.5599
10900.000000	65.145	-110.5258
11060.000000	65.509	-89.4013
11200.000000	65.963	-71.1484
11380.000000	66.746	-47.9816
11500.000000	67.385	-32.9349
11720.000000	68.753	-7.7598
11800.000000	69.293	0.2447
12060.000000	71.110	22.1865
12200.000000	72.077	31.9404
12410.000000	73.446	44.4396
12500.000000	73.992	49.1931
12650.000000	74.851	56.7045
12800.000000	75.644	63.9840
13150.000000	77.029	79.0473
13200.000000	77.132	80.8620
13400.000000	77.185	87.7666
13600.000000	76.606	96.4728
13800.000000	75.595	111.5207
14000.000000	74.681	136.0782
14300.000000	74.278	175.9797
14500.000000	74.222	-164.9873
14750.000000	73.751	-144.2568
15000.000000	72.921	-119.8669
15250.000000	72.168	-88.8053
15500.000000	71.821	-54.5384
15750.000000	71.855	-23.3271
16000.000000	71.971	1.3038
16250.000000	71.846	16.2480
16500.000000	71.278	19.5985
16750.000000	70.275	14.3478
17000.000000	68.966	6.4020
17250.000000	67.513	-0.1906
17500.000000	66.105	-4.4177
17750.000000	64.934	-6.6729
18000.000000	64.136	-7.8618
18250.000000	63.764	-8.5315
18500.000000	63.786	-8.1635
18750.000000	64.076	-6.0877
19000.000000	64.463	-2.8313
19250.000000	64.809	0.5988
19500.000000	65.061	3.7450
19750.000000	65.225	6.3918
20000.000000	65.306	7.9949
