* Measurement data measured by REW V5.20.13
* Source: Microphone (3- USB Audio Device), MICROPHONE (Master Volume), R, volume: 0.300. Timing signal peak level -38.6 dBFS, measurement signal peak level -37.1 dBFS
* Format: 256k Log Swept Sine, 1 sweep at -12.0 dBFS using an acoustic timing reference
* Dated: 30-Jan-2023 14:27:57
* REW Settings:
*  C-weighting compensation: Off
*  Target level: 75.0 dB
* Note: 
* Measurement: QCY HT05 Melobuds R
* Smoothing: 1/12 octave
* Frequency Step: 1/48 octave
* Start Frequency: 20.300 Hz
*
* Freq(Hz)	SPL(dB)	Phase(degrees)
20.299999	63.316	75.0506
20.600000	63.334	74.7754
20.900000	63.383	74.1726
21.200001	63.448	73.4516
21.400000	63.501	72.9502
21.799999	63.630	72.0051
22.000000	63.705	71.6171
22.400000	63.867	71.0981
22.700001	63.990	70.9369
23.000000	64.109	70.9067
23.299999	64.218	70.8843
23.600000	64.316	70.7447
24.000000	64.423	70.2083
24.299999	64.485	69.4896
24.700001	64.549	68.1803
25.000000	64.591	67.0725
25.400000	64.655	65.6463
25.799999	64.749	64.4790
26.200001	64.883	63.6447
26.500000	65.007	63.1993
26.900000	65.196	62.7435
27.200001	65.345	62.4222
27.600000	65.541	61.9351
28.000000	65.721	61.3387
28.500000	65.904	60.4935
29.000000	66.034	59.7311
29.500000	66.121	59.2486
30.000000	66.200	59.0662
30.400000	66.280	58.9866
30.700001	66.354	58.8568
31.100000	66.467	58.4816
31.500000	66.588	57.8525
32.000000	66.739	56.8221
32.500000	66.889	55.7414
33.000000	67.044	54.7785
33.500000	67.207	53.9428
34.000000	67.371	53.1467
34.500000	67.526	52.2993
35.000000	67.664	51.3630
35.500000	67.787	50.3499
36.000000	67.898	49.2975
36.500000	68.002	48.2364
37.000000	68.103	47.1692
37.500000	68.202	46.0764
38.200001	68.335	44.4819
38.700001	68.428	43.3188
39.500000	68.584	41.4955
40.000000	68.684	40.3997
40.599998	68.797	39.1325
41.200001	68.891	37.9196
41.799999	68.964	36.7433
42.500000	69.030	35.3556
43.099998	69.079	34.1154
43.700001	69.125	32.8516
44.400002	69.175	31.4028
45.000000	69.213	30.1928
45.500000	69.236	29.1862
46.200001	69.258	27.7552
46.799999	69.272	26.5138
47.500000	69.297	25.0817
48.200001	69.336	23.7054
48.700001	69.368	22.7689
49.400002	69.406	21.5125
50.000000	69.425	20.4559
50.799999	69.426	19.0408
51.500000	69.410	17.8082
52.200001	69.388	16.6112
53.000000	69.358	15.3086
53.799999	69.323	14.0844
54.500000	69.292	13.0691
55.200001	69.264	12.0808
56.000000	69.239	10.9647
57.000000	69.212	9.6020
58.000000	69.183	8.2622
59.000000	69.149	6.9030
60.000000	69.107	5.5578
60.799999	69.067	4.5494
61.500000	69.029	3.7356
62.200001	68.989	2.9698
63.000000	68.944	2.1193
64.000000	68.889	1.0819
65.000000	68.835	0.0942
66.000000	68.781	-0.8716
67.000000	68.717	-1.8248
68.000000	68.646	-2.7131
69.000000	68.579	-3.5264
70.000000	68.524	-4.3223
71.000000	68.476	-5.1476
72.000000	68.423	-5.9772
73.000000	68.361	-6.7601
74.000000	68.296	-7.4943
75.000000	68.233	-8.2066
76.199997	68.159	-9.0517
77.500000	68.071	-9.9467
78.800003	67.980	-10.7881
80.000000	67.911	-11.5341
81.199997	67.853	-12.2886
82.500000	67.785	-13.1181
83.800003	67.706	-13.9334
85.000000	67.629	-14.6371
86.199997	67.556	-15.2833
87.500000	67.479	-15.9506
88.500000	67.419	-16.4660
90.000000	67.326	-17.2607
91.199997	67.251	-17.8921
92.500000	67.171	-18.5284
93.800003	67.093	-19.1090
95.000000	67.017	-19.6319
96.199997	66.942	-20.1781
97.500000	66.868	-20.8055
98.800003	66.805	-21.4345
100.000000	66.747	-21.9769
101.500000	66.669	-22.5917
103.000000	66.585	-23.1621
104.400002	66.501	-23.6733
106.000000	66.399	-24.2492
107.500000	66.303	-24.7778
109.000000	66.214	-25.2662
110.599998	66.124	-25.7513
112.000000	66.040	-26.1867
113.800003	65.921	-26.8040
115.000000	65.841	-27.2377
117.199997	65.700	-27.9440
118.000000	65.650	-28.1520
120.599998	65.501	-28.7630
122.000000	65.425	-29.0917
124.099998	65.311	-29.5701
125.000000	65.263	-29.7720
126.500000	65.180	-30.1029
128.000000	65.098	-30.4204
131.500000	64.918	-31.1028
132.000000	64.893	-31.1923
134.000000	64.789	-31.5065
136.000000	64.680	-31.7114
138.000000	64.573	-31.8099
140.000000	64.466	-31.9155
143.000000	64.310	-32.2548
145.000000	64.210	-32.5113
147.500000	64.076	-32.7902
150.000000	63.929	-33.0552
152.500000	63.790	-33.2135
155.000000	63.670	-33.2389
157.500000	63.561	-33.2934
160.000000	63.455	-33.4051
162.500000	63.349	-33.4512
165.000000	63.248	-33.4110
167.500000	63.154	-33.3585
170.000000	63.066	-33.3362
172.500000	62.977	-33.3437
175.000000	62.888	-33.2975
177.500000	62.805	-33.1213
180.000000	62.734	-32.8795
182.500000	62.673	-32.6801
185.000000	62.618	-32.5752
187.500000	62.564	-32.5563
190.000000	62.508	-32.5723
192.500000	62.454	-32.5822
195.000000	62.409	-32.5381
197.500000	62.377	-32.3821
200.000000	62.350	-32.1290
203.000000	62.315	-31.8095
206.000000	62.280	-31.5918
209.000000	62.249	-31.5105
212.000000	62.214	-31.5486
214.000000	62.191	-31.6031
218.000000	62.153	-31.6570
220.000000	62.135	-31.6210
224.000000	62.098	-31.4526
227.000000	62.078	-31.3473
230.000000	62.066	-31.3220
233.000000	62.056	-31.3593
236.000000	62.047	-31.4093
240.000000	62.031	-31.4564
243.000000	62.014	-31.5194
247.000000	61.989	-31.6863
250.000000	61.974	-31.8652
254.000000	61.966	-32.1281
258.000000	61.960	-32.3672
262.000000	61.943	-32.5814
265.000000	61.929	-32.7410
269.000000	61.917	-32.9700
272.000000	61.913	-33.1370
276.000000	61.914	-33.3108
280.000000	61.917	-33.4181
285.000000	61.924	-33.5267
290.000000	61.942	-33.7074
295.000000	61.959	-33.9169
300.000000	61.959	-34.1341
304.000000	61.953	-34.3577
307.000000	61.950	-34.5466
311.000000	61.951	-34.7838
315.000000	61.958	-34.9786
320.000000	61.973	-35.1987
325.000000	61.993	-35.4838
330.000000	62.016	-35.8594
335.000000	62.031	-36.2837
340.000000	62.040	-36.6964
345.000000	62.063	-37.0795
350.000000	62.102	-37.4648
355.000000	62.144	-37.8604
360.000000	62.176	-38.2083
365.000000	62.200	-38.5157
370.000000	62.222	-38.8645
375.000000	62.241	-39.3010
382.000000	62.257	-39.9783
387.000000	62.269	-40.4225
395.000000	62.305	-40.9508
400.000000	62.333	-41.2000
406.000000	62.369	-41.5224
412.000000	62.411	-41.9324
418.000000	62.454	-42.4153
425.000000	62.493	-43.0082
431.000000	62.517	-43.5448
437.000000	62.529	-44.1115
444.000000	62.524	-44.7986
450.000000	62.511	-45.3889
455.000000	62.501	-45.8705
462.000000	62.494	-46.5335
468.000000	62.494	-47.1025
475.000000	62.492	-47.7591
482.000000	62.484	-48.4149
487.000000	62.473	-48.9137
494.000000	62.453	-49.6709
500.000000	62.431	-50.3417
508.000000	62.398	-51.1992
515.000000	62.371	-51.8490
522.000000	62.344	-52.3528
530.000000	62.310	-52.8176
538.000000	62.276	-53.2680
545.000000	62.246	-53.6452
552.000000	62.213	-54.0035
560.000000	62.173	-54.4166
570.000000	62.123	-54.9173
580.000000	62.078	-55.3890
590.000000	62.027	-55.8849
600.000000	61.965	-56.4196
608.000000	61.909	-56.8842
615.000000	61.863	-57.3111
622.000000	61.824	-57.7308
630.000000	61.789	-58.1844
640.000000	61.751	-58.7127
650.000000	61.713	-59.1554
660.000000	61.677	-59.4526
670.000000	61.645	-59.6636
680.000000	61.619	-59.8675
690.000000	61.596	-59.9963
700.000000	61.576	-60.0229
710.000000	61.555	-60.0358
720.000000	61.534	-60.0800
730.000000	61.524	-60.1506
740.000000	61.523	-60.2543
750.000000	61.528	-60.3752
762.000000	61.534	-60.5266
775.000000	61.545	-60.7029
788.000000	61.564	-60.8296
800.000000	61.594	-60.8860
812.000000	61.637	-60.9484
825.000000	61.685	-61.0932
838.000000	61.734	-61.3135
850.000000	61.782	-61.5279
862.000000	61.832	-61.7404
875.000000	61.894	-62.0453
885.000000	61.949	-62.3360
900.000000	62.032	-62.7699
912.000000	62.090	-63.0969
925.000000	62.156	-63.4955
938.000000	62.236	-63.9502
950.000000	62.320	-64.4029
962.000000	62.409	-64.8863
975.000000	62.510	-65.4377
988.000000	62.615	-66.0063
1000.000000	62.714	-66.5456
1015.000000	62.840	-67.2293
1030.000000	62.967	-67.9578
1044.000000	63.090	-68.7143
1060.000000	63.233	-69.6603
1075.000000	63.365	-70.6244
1090.000000	63.495	-71.6640
1106.000000	63.629	-72.8379
1120.000000	63.739	-73.8843
1138.000000	63.879	-75.2053
1150.000000	63.973	-76.0810
1172.000000	64.146	-77.7330
1180.000000	64.211	-78.3406
1206.000000	64.421	-80.2941
1220.000000	64.528	-81.3400
1241.000000	64.676	-82.9565
1250.000000	64.736	-83.6880
1265.000000	64.832	-84.9778
1280.000000	64.926	-86.3542
1315.000000	65.132	-89.7930
1320.000000	65.159	-90.2961
1340.000000	65.267	-92.3328
1360.000000	65.372	-94.3886
1380.000000	65.474	-96.3874
1400.000000	65.568	-98.2867
1430.000000	65.711	-101.0466
1450.000000	65.809	-102.9036
1475.000000	65.923	-105.2206
1500.000000	66.025	-107.4895
1525.000000	66.123	-109.7363
1550.000000	66.210	-111.9783
1575.000000	66.292	-114.1761
1600.000000	66.386	-116.3569
1625.000000	66.490	-118.5908
1650.000000	66.591	-120.9467
1675.000000	66.680	-123.4220
1700.000000	66.762	-125.9105
1725.000000	66.846	-128.2668
1750.000000	66.936	-130.4337
1775.000000	67.027	-132.5108
1800.000000	67.121	-134.6221
1825.000000	67.215	-136.8268
1850.000000	67.308	-139.1259
1875.000000	67.402	-141.4753
1900.000000	67.496	-143.8367
1925.000000	67.586	-146.1996
1950.000000	67.674	-148.5504
1975.000000	67.762	-150.8609
2000.000000	67.851	-153.1059
2030.000000	67.960	-155.6747
2060.000000	68.073	-158.0688
2090.000000	68.194	-160.3426
2120.000000	68.320	-162.6102
2140.000000	68.403	-164.1719
2180.000000	68.563	-167.5390
2200.000000	68.643	-169.3614
2240.000000	68.797	-173.2432
2270.000000	68.902	-176.3090
2300.000000	69.005	-179.3966
2330.000000	69.116	177.5875
2360.000000	69.236	174.6174
2400.000000	69.396	170.6047
2430.000000	69.512	167.5362
2470.000000	69.663	163.3873
2500.000000	69.777	160.2021
2540.000000	69.926	155.7393
2580.000000	70.059	150.9581
2620.000000	70.184	145.9700
2650.000000	70.276	142.2204
2690.000000	70.397	137.2894
2720.000000	70.485	133.6138
2760.000000	70.597	128.6639
2800.000000	70.707	123.5870
2850.000000	70.833	117.0522
2900.000000	70.940	110.5461
2950.000000	71.035	104.3639
3000.000000	71.121	98.5609
3040.000000	71.175	94.1335
3070.000000	71.201	90.9366
3110.000000	71.221	86.9019
3150.000000	71.234	83.2252
3200.000000	71.248	79.2077
3250.000000	71.254	75.6725
3300.000000	71.235	72.2710
3350.000000	71.180	68.7719
3400.000000	71.092	65.2552
3450.000000	70.979	61.9787
3500.000000	70.847	59.0996
3550.000000	70.696	56.6180
3600.000000	70.523	54.4647
3650.000000	70.328	52.6116
3700.000000	70.120	51.1218
3750.000000	69.906	50.0540
3820.000000	69.594	49.1569
3870.000000	69.371	48.7714
3950.000000	69.026	48.2859
4000.000000	68.815	47.9406
4060.000000	68.568	47.4518
4120.000000	68.333	46.9306
4180.000000	68.120	46.4269
4250.000000	67.903	45.8602
4310.000000	67.743	45.3275
4370.000000	67.602	44.7263
4440.000000	67.463	44.0620
4500.000000	67.369	43.5916
4550.000000	67.306	43.2292
4620.000000	67.235	42.6613
4680.000000	67.186	42.0298
4750.000000	67.140	41.0468
4820.000000	67.108	39.7915
4870.000000	67.095	38.7410
4940.000000	67.088	37.0282
5000.000000	67.085	35.2940
5080.000000	67.075	32.6678
5150.000000	67.066	30.2549
5220.000000	67.062	27.8359
5300.000000	67.062	25.0848
5380.000000	67.058	22.4082
5450.000000	67.053	20.1111
5520.000000	67.042	17.6805
5600.000000	67.016	14.5616
5700.000000	66.965	10.2740
5800.000000	66.905	6.1887
5900.000000	66.841	3.0196
6000.000000	66.771	0.7908
6080.000000	66.710	-0.6860
6150.000000	66.651	-1.9357
6220.000000	66.587	-3.1407
6300.000000	66.512	-4.4242
6400.000000	66.406	-5.9500
6500.000000	66.294	-7.4807
6600.000000	66.183	-9.0037
6700.000000	66.073	-10.4570
6800.000000	65.958	-11.8793
6900.000000	65.830	-13.3959
7000.000000	65.691	-15.0844
7100.000000	65.537	-17.0026
7200.000000	65.369	-19.1499
7300.000000	65.194	-21.3708
7400.000000	65.020	-23.4714
7500.000000	64.848	-25.3207
7620.000000	64.649	-27.0103
7750.000000	64.455	-28.0188
7880.000000	64.302	-28.3262
8000.000000	64.205	-28.3561
8120.000000	64.151	-28.3641
8250.000000	64.152	-28.2863
8380.000000	64.221	-28.0250
8500.000000	64.342	-27.6953
8620.000000	64.517	-27.3015
8750.000000	64.766	-26.8428
8850.000000	64.994	-26.6601
9000.000000	65.371	-27.1259
9120.000000	65.685	-28.2544
9250.000000	66.008	-30.1895
9380.000000	66.267	-32.9966
9500.000000	66.405	-36.4495
9620.000000	66.409	-40.5507
9750.000000	66.232	-45.2505
9880.000000	65.852	-49.5040
10000.000000	65.328	-52.3562
10150.000000	64.483	-53.7433
10300.000000	63.494	-52.4950
10440.000000	62.496	-49.5261
10600.000000	61.317	-44.9315
10750.000000	60.221	-39.7946
10900.000000	59.165	-33.7715
11060.000000	58.101	-26.2618
11200.000000	57.232	-18.9156
11380.000000	56.203	-9.3256
11500.000000	55.575	-3.5898
11720.000000	54.543	4.6841
11800.000000	54.204	7.0986
12060.000000	53.235	13.9601
12200.000000	52.798	17.4431
12410.000000	52.247	22.7328
12500.000000	52.046	24.9464
12650.000000	51.750	28.4725
12800.000000	51.499	31.9843
13150.000000	51.084	41.1084
13200.000000	51.045	42.4796
13400.000000	50.945	47.8311
13600.000000	50.934	52.3143
13800.000000	51.012	54.9571
14000.000000	51.159	55.3066
14300.000000	51.466	51.7938
14500.000000	51.726	47.6041
14750.000000	52.181	41.3672
15000.000000	52.939	34.2906
15250.000000	54.001	26.1281
15500.000000	55.195	16.0687
15750.000000	56.325	3.3279
16000.000000	57.171	-12.4655
16250.000000	57.526	-30.8725
16500.000000	57.302	-49.5345
16750.000000	56.544	-64.9531
17000.000000	55.412	-75.0283
17250.000000	54.118	-80.1550
17500.000000	52.863	-81.7589
17750.000000	51.764	-81.3241
18000.000000	50.854	-80.3099
18250.000000	50.150	-80.3057
18500.000000	49.659	-85.2310
18750.000000	49.335	-105.2260
19000.000000	49.097	-160.0626
19250.000000	48.894	84.3270
19500.000000	48.719	-100.9360
19750.000000	48.594	46.0865
