* Measurement data measured by REW V5.31.3
* Source: Microphone (USB Sound Device        ), MICROPHONE (Master Volume), L, volume: 0.250
* Format: 256k Log Swept Sine, 1 sweep at -12.0 dBFS with no timing reference
* Dated: 18-Jan-2025 14:29:47
* REW Settings:
*  C-weighting compensation: Off
*  Target level: 75.0 dB
* Note: 
* Measurement: Realme BA6P PB R
* Smoothing: 1/12 octave
* Frequency Step: 1/48 octave
* Start Frequency: 20.300 Hz
*
* Freq(Hz)	SPL(dB)	Phase(degrees)
20.299999	81.939	23.4381
20.600000	81.984	22.9698
20.900000	82.039	22.3736
21.200001	82.096	21.7203
21.400000	82.134	21.2674
21.799999	82.204	20.3394
22.000000	82.236	19.8727
22.400000	82.296	18.9537
22.700001	82.337	18.2889
23.000000	82.375	17.6487
23.299999	82.411	17.0287
23.600000	82.447	16.4196
24.000000	82.491	15.6067
24.299999	82.521	14.9873
24.700001	82.557	14.1462
25.000000	82.582	13.5099
25.400000	82.612	12.6693
25.799999	82.640	11.8538
26.200001	82.666	11.0724
26.500000	82.684	10.5064
26.900000	82.706	9.7663
27.200001	82.719	9.2120
27.600000	82.732	8.4645
28.000000	82.738	7.7105
28.500000	82.736	6.7882
29.000000	82.729	5.9299
29.500000	82.728	5.1477
30.000000	82.738	4.4079
30.400000	82.749	3.8177
30.700001	82.754	3.3709
31.100000	82.756	2.7784
31.500000	82.751	2.2054
32.000000	82.742	1.5297
32.500000	82.737	0.8822
33.000000	82.740	0.2271
33.500000	82.745	-0.4524
34.000000	82.747	-1.1414
34.500000	82.743	-1.8127
35.000000	82.734	-2.4497
35.500000	82.723	-3.0533
36.000000	82.715	-3.6357
36.500000	82.713	-4.2126
37.000000	82.718	-4.7942
37.500000	82.723	-5.3751
38.200001	82.723	-6.1496
38.700001	82.717	-6.6579
39.500000	82.708	-7.4368
40.000000	82.704	-7.9422
40.599998	82.704	-8.5766
41.200001	82.707	-9.2175
41.799999	82.712	-9.8469
42.500000	82.711	-10.5678
43.099998	82.701	-11.1777
43.700001	82.685	-11.7843
44.400002	82.674	-12.5086
45.000000	82.678	-13.1611
45.500000	82.686	-13.7226
46.200001	82.698	-14.5059
46.799999	82.702	-15.1520
47.500000	82.703	-15.8751
48.200001	82.707	-16.5869
48.700001	82.716	-17.1009
49.400002	82.733	-17.8314
50.000000	82.741	-18.4572
50.799999	82.729	-19.2711
51.500000	82.705	-19.9721
52.200001	82.682	-20.6976
53.000000	82.668	-21.5913
53.799999	82.662	-22.5439
54.500000	82.651	-23.3892
55.200001	82.632	-24.2144
56.000000	82.604	-25.1214
57.000000	82.571	-26.2092
58.000000	82.540	-27.2584
59.000000	82.506	-28.3245
60.000000	82.466	-29.4631
60.799999	82.431	-30.3957
61.500000	82.400	-31.1917
62.200001	82.369	-31.9548
63.000000	82.334	-32.7924
64.000000	82.290	-33.8395
65.000000	82.242	-34.9551
66.000000	82.181	-36.1441
67.000000	82.107	-37.3510
68.000000	82.023	-38.5392
69.000000	81.931	-39.7093
70.000000	81.827	-40.8404
71.000000	81.722	-41.9048
72.000000	81.625	-42.9215
73.000000	81.533	-43.9210
74.000000	81.439	-44.8970
75.000000	81.338	-45.8289
76.199997	81.207	-46.8941
77.500000	81.055	-48.0382
78.800003	80.899	-49.1972
80.000000	80.753	-50.2228
81.199997	80.600	-51.1798
82.500000	80.424	-52.1616
83.800003	80.250	-53.0833
85.000000	80.094	-53.8772
86.199997	79.935	-54.6602
87.500000	79.758	-55.5225
88.500000	79.620	-56.1746
90.000000	79.404	-57.1072
91.199997	79.225	-57.8066
92.500000	79.038	-58.4830
93.800003	78.866	-59.0400
95.000000	78.718	-59.4784
96.199997	78.566	-59.9015
97.500000	78.386	-60.3589
98.800003	78.192	-60.7907
100.000000	78.009	-61.1645
101.500000	77.790	-61.6338
103.000000	77.580	-62.1200
104.400002	77.389	-62.5574
106.000000	77.170	-62.9739
107.500000	76.964	-63.2624
109.000000	76.759	-63.4772
110.599998	76.549	-63.6544
112.000000	76.375	-63.7551
113.800003	76.155	-63.8226
115.000000	76.010	-63.8355
117.199997	75.743	-63.7685
118.000000	75.644	-63.7338
120.599998	75.318	-63.5986
122.000000	75.145	-63.4712
124.099998	74.892	-63.2324
125.000000	74.785	-63.1287
126.500000	74.609	-62.9652
128.000000	74.438	-62.7971
131.500000	74.077	-62.3017
132.000000	74.031	-62.2286
134.000000	73.853	-61.9363
136.000000	73.670	-61.5911
138.000000	73.481	-61.1515
140.000000	73.297	-60.6438
143.000000	73.030	-59.8497
145.000000	72.860	-59.3294
147.500000	72.666	-58.6607
150.000000	72.484	-57.9393
152.500000	72.307	-57.1425
155.000000	72.146	-56.2843
157.500000	72.008	-55.4560
160.000000	71.887	-54.7167
162.500000	71.777	-54.0600
165.000000	71.667	-53.3956
167.500000	71.549	-52.6714
170.000000	71.423	-51.9510
172.500000	71.304	-51.2363
175.000000	71.202	-50.4342
177.500000	71.111	-49.5322
180.000000	71.023	-48.5909
182.500000	70.932	-47.6950
185.000000	70.840	-46.9048
187.500000	70.747	-46.1979
190.000000	70.653	-45.5393
192.500000	70.563	-44.9432
195.000000	70.486	-44.3903
197.500000	70.428	-43.8130
200.000000	70.392	-43.1730
203.000000	70.367	-42.3591
206.000000	70.354	-41.5578
209.000000	70.349	-40.8760
212.000000	70.345	-40.3000
214.000000	70.340	-39.9148
218.000000	70.320	-39.1327
220.000000	70.307	-38.7688
224.000000	70.282	-38.1029
227.000000	70.267	-37.5876
230.000000	70.253	-37.0376
233.000000	70.239	-36.4939
236.000000	70.228	-35.9941
240.000000	70.219	-35.4224
243.000000	70.212	-35.0350
247.000000	70.198	-34.5033
250.000000	70.183	-34.0947
254.000000	70.164	-33.5751
258.000000	70.147	-33.0346
262.000000	70.133	-32.4477
265.000000	70.125	-32.0353
269.000000	70.123	-31.5470
272.000000	70.129	-31.2045
276.000000	70.142	-30.7774
280.000000	70.165	-30.3694
285.000000	70.204	-29.8558
290.000000	70.230	-29.3660
295.000000	70.239	-28.9337
300.000000	70.250	-28.5663
304.000000	70.268	-28.3149
307.000000	70.285	-28.1456
311.000000	70.308	-27.9427
315.000000	70.325	-27.7648
320.000000	70.333	-27.5755
325.000000	70.328	-27.3744
330.000000	70.323	-27.1820
335.000000	70.328	-27.0757
340.000000	70.338	-26.9941
345.000000	70.352	-26.8436
350.000000	70.365	-26.6576
355.000000	70.373	-26.4717
360.000000	70.382	-26.2810
365.000000	70.388	-26.1014
370.000000	70.391	-25.9105
375.000000	70.395	-25.6860
382.000000	70.411	-25.3351
387.000000	70.432	-25.1357
395.000000	70.476	-24.9304
400.000000	70.501	-24.8271
406.000000	70.529	-24.7490
412.000000	70.567	-24.7635
418.000000	70.623	-24.8044
425.000000	70.704	-24.7699
431.000000	70.773	-24.7053
437.000000	70.826	-24.6614
444.000000	70.863	-24.6638
450.000000	70.885	-24.7382
455.000000	70.910	-24.8826
462.000000	70.956	-25.1952
468.000000	70.995	-25.5128
475.000000	71.032	-25.9364
482.000000	71.065	-26.4124
487.000000	71.089	-26.7640
494.000000	71.126	-27.2250
500.000000	71.152	-27.5940
508.000000	71.164	-28.1273
515.000000	71.156	-28.6697
522.000000	71.139	-29.2728
530.000000	71.109	-29.9497
538.000000	71.073	-30.5774
545.000000	71.041	-31.0984
552.000000	71.004	-31.6177
560.000000	70.952	-32.2145
570.000000	70.873	-32.9677
580.000000	70.778	-33.7008
590.000000	70.665	-34.3197
600.000000	70.524	-34.7977
608.000000	70.395	-35.1039
615.000000	70.280	-35.3114
622.000000	70.170	-35.4664
630.000000	70.053	-35.6027
640.000000	69.923	-35.7432
650.000000	69.797	-35.8722
660.000000	69.664	-35.9281
670.000000	69.523	-35.8685
680.000000	69.384	-35.7540
690.000000	69.256	-35.5940
700.000000	69.143	-35.3634
710.000000	69.043	-35.0760
720.000000	68.945	-34.7686
730.000000	68.834	-34.3962
740.000000	68.711	-33.9766
750.000000	68.588	-33.5819
762.000000	68.458	-33.1187
775.000000	68.337	-32.5548
788.000000	68.226	-31.8893
800.000000	68.130	-31.1905
812.000000	68.034	-30.4088
825.000000	67.938	-29.5284
838.000000	67.859	-28.6103
850.000000	67.797	-27.7520
862.000000	67.739	-26.9117
875.000000	67.679	-26.0030
885.000000	67.639	-25.2925
900.000000	67.593	-24.2056
912.000000	67.565	-23.3429
925.000000	67.542	-22.4180
938.000000	67.532	-21.4712
950.000000	67.539	-20.5870
962.000000	67.561	-19.7194
975.000000	67.597	-18.8304
988.000000	67.639	-18.0166
1000.000000	67.679	-17.2996
1015.000000	67.729	-16.4095
1030.000000	67.776	-15.5485
1044.000000	67.819	-14.8088
1060.000000	67.868	-14.0536
1075.000000	67.920	-13.4370
1090.000000	67.976	-12.8804
1106.000000	68.042	-12.2834
1120.000000	68.110	-11.7619
1138.000000	68.206	-11.1719
1150.000000	68.273	-10.8268
1172.000000	68.404	-10.2510
1180.000000	68.453	-10.0422
1206.000000	68.620	-9.3825
1220.000000	68.712	-9.0711
1241.000000	68.852	-8.6485
1250.000000	68.912	-8.4856
1265.000000	69.015	-8.2382
1280.000000	69.125	-8.0086
1315.000000	69.369	-7.4728
1320.000000	69.398	-7.3955
1340.000000	69.484	-7.1072
1360.000000	69.525	-6.8615
1380.000000	69.529	-6.6201
1400.000000	69.520	-6.3596
1430.000000	69.533	-5.9481
1450.000000	69.571	-5.6844
1475.000000	69.644	-5.4178
1500.000000	69.740	-5.2286
1525.000000	69.859	-5.0403
1550.000000	69.984	-4.8025
1575.000000	70.103	-4.5560
1600.000000	70.221	-4.2496
1625.000000	70.342	-3.8757
1650.000000	70.469	-3.5215
1675.000000	70.600	-3.2036
1700.000000	70.727	-2.9065
1725.000000	70.855	-2.6577
1750.000000	70.986	-2.4375
1775.000000	71.116	-2.2052
1800.000000	71.244	-1.9658
1825.000000	71.372	-1.7381
1850.000000	71.505	-1.5209
1875.000000	71.642	-1.3003
1900.000000	71.783	-1.0768
1925.000000	71.926	-0.8628
1950.000000	72.071	-0.6739
1975.000000	72.224	-0.5323
2000.000000	72.395	-0.4595
2030.000000	72.616	-0.4763
2060.000000	72.843	-0.6061
2090.000000	73.071	-0.7944
2120.000000	73.299	-1.0353
2140.000000	73.450	-1.2688
2180.000000	73.740	-1.8859
2200.000000	73.875	-2.2273
2240.000000	74.136	-2.9341
2270.000000	74.338	-3.4645
2300.000000	74.546	-4.0147
2330.000000	74.750	-4.6520
2360.000000	74.948	-5.4290
2400.000000	75.204	-6.7125
2430.000000	75.390	-7.8495
2470.000000	75.621	-9.5326
2500.000000	75.773	-10.8861
2540.000000	75.944	-12.7859
2580.000000	76.069	-14.7463
2620.000000	76.140	-16.6804
2650.000000	76.164	-18.0475
2690.000000	76.170	-19.6962
2720.000000	76.162	-20.7831
2760.000000	76.143	-22.0500
2800.000000	76.128	-23.1526
2850.000000	76.124	-24.3650
2900.000000	76.136	-25.4173
2950.000000	76.165	-26.4071
3000.000000	76.208	-27.4947
3040.000000	76.243	-28.4096
3070.000000	76.266	-29.0912
3110.000000	76.292	-29.9945
3150.000000	76.311	-30.9006
3200.000000	76.325	-32.0563
3250.000000	76.327	-33.2359
3300.000000	76.315	-34.4193
3350.000000	76.288	-35.5744
3400.000000	76.247	-36.6998
3450.000000	76.195	-37.7700
3500.000000	76.130	-38.7624
3550.000000	76.053	-39.6878
3600.000000	75.968	-40.5554
3650.000000	75.883	-41.3446
3700.000000	75.800	-42.0183
3750.000000	75.721	-42.5817
3820.000000	75.614	-43.2397
3870.000000	75.547	-43.5974
3950.000000	75.465	-43.8632
4000.000000	75.433	-43.9140
4060.000000	75.398	-44.0062
4120.000000	75.345	-44.1655
4180.000000	75.281	-44.3585
4250.000000	75.213	-44.6816
4310.000000	75.151	-45.0095
4370.000000	75.078	-45.2856
4440.000000	74.992	-45.5459
4500.000000	74.930	-45.7434
4550.000000	74.889	-45.8968
4620.000000	74.846	-46.0818
4680.000000	74.820	-46.2018
4750.000000	74.792	-46.3155
4820.000000	74.761	-46.4322
4870.000000	74.734	-46.5209
4940.000000	74.689	-46.6385
5000.000000	74.638	-46.7252
5080.000000	74.555	-46.8172
5150.000000	74.480	-46.8535
5220.000000	74.409	-46.8186
5300.000000	74.323	-46.6970
5380.000000	74.229	-46.5524
5450.000000	74.144	-46.4213
5520.000000	74.059	-46.2492
5600.000000	73.966	-45.9655
5700.000000	73.859	-45.4834
5800.000000	73.755	-44.8990
5900.000000	73.660	-44.2270
6000.000000	73.582	-43.4407
6080.000000	73.529	-42.6963
6150.000000	73.485	-41.9396
6220.000000	73.448	-41.0808
6300.000000	73.419	-39.9981
6400.000000	73.410	-38.5447
6500.000000	73.435	-37.0293
6600.000000	73.501	-35.5059
6700.000000	73.620	-34.0185
6800.000000	73.806	-32.5942
6900.000000	74.058	-31.2738
7000.000000	74.371	-30.1501
7100.000000	74.752	-29.3345
7200.000000	75.205	-28.9514
7300.000000	75.728	-29.1188
7400.000000	76.324	-29.9578
7500.000000	76.982	-31.6535
7620.000000	77.810	-35.1522
7750.000000	78.614	-41.1076
7880.000000	79.100	-49.3241
8000.000000	79.088	-58.2441
8120.000000	78.559	-67.2892
8250.000000	77.443	-75.8130
8380.000000	75.904	-81.9091
8500.000000	74.270	-84.8882
8620.000000	72.585	-85.2670
8750.000000	70.847	-83.0104
8850.000000	69.642	-79.7188
9000.000000	68.111	-73.0367
9120.000000	67.128	-66.7802
9250.000000	66.287	-59.5312
9380.000000	65.648	-52.1161
9500.000000	65.222	-45.3668
9620.000000	64.938	-38.8230
9750.000000	64.768	-32.0174
9880.000000	64.716	-25.5438
10000.000000	64.754	-19.8652
10150.000000	64.893	-13.1855
10300.000000	65.112	-6.9819
10440.000000	65.377	-1.5944
10600.000000	65.752	4.0548
10750.000000	66.166	8.7423
10900.000000	66.614	12.7422
11060.000000	67.092	16.2634
11200.000000	67.486	18.8839
11380.000000	67.969	22.0486
11500.000000	68.303	24.2287
11720.000000	69.035	28.2489
11800.000000	69.354	29.5131
12060.000000	70.503	31.7110
12200.000000	71.087	31.3960
12410.000000	71.743	29.2793
12500.000000	71.914	28.0219
12650.000000	72.036	25.8780
12800.000000	71.968	24.0921
13150.000000	71.299	23.1413
13200.000000	71.175	23.4223
13400.000000	70.694	25.4529
13600.000000	70.367	28.5089
13800.000000	70.331	31.8753
14000.000000	70.638	34.6928
14300.000000	71.610	35.9486
14500.000000	72.376	33.8636
14750.000000	73.104	27.7494
15000.000000	73.237	18.8456
15250.000000	72.579	9.4438
15500.000000	71.157	2.0297
15750.000000	69.195	-1.6469
16000.000000	67.018	-1.1184
16250.000000	64.950	2.9689
16500.000000	63.210	9.4841
16750.000000	61.848	17.5004
17000.000000	60.805	26.5813
17250.000000	60.030	36.8132
17500.000000	59.565	48.3118
17750.000000	59.526	60.4629
18000.000000	59.959	71.5226
18250.000000	60.707	79.3780
18500.000000	61.454	83.1547
18750.000000	61.902	83.7394
19000.000000	61.902	82.8748
19250.000000	61.466	82.2319
19500.000000	60.727	82.7747
19750.000000	59.914	84.4249
20000.000000	59.374	85.9656
