* Measurement data measured by REW V5.31.3
* Source: Microphone (6- USB Sound Device        ), MICROPHONE (Master Volume), L, volume: 0.700
* Format: 256k Log Swept Sine, 1 sweep at -12.0 dBFS with no timing reference
* Dated: 23-May-2025 15:01:30
* REW Settings:
*  C-weighting compensation: Off
*  Target level: 75.0 dB
* Note: 
* Measurement: Rose Ceramics X Pop R
* Smoothing: 1/12 octave
* Frequency Step: 1/48 octave
* Start Frequency: 20.300 Hz
*
* Freq(Hz)	SPL(dB)	Phase(degrees)
20.299999	73.221	-4.6674
20.600000	73.192	-5.0999
20.900000	73.153	-5.6442
21.200001	73.109	-6.2300
21.400000	73.078	-6.6295
21.799999	73.013	-7.4345
22.000000	72.979	-7.8348
22.400000	72.912	-8.6199
22.700001	72.860	-9.1872
23.000000	72.808	-9.7313
23.299999	72.755	-10.2513
23.600000	72.703	-10.7493
24.000000	72.632	-11.3869
24.299999	72.577	-11.8518
24.700001	72.502	-12.4607
25.000000	72.444	-12.9096
25.400000	72.364	-13.4922
25.799999	72.281	-14.0475
26.200001	72.198	-14.5689
26.500000	72.135	-14.9385
26.900000	72.051	-15.4082
27.200001	71.988	-15.7471
27.600000	71.902	-16.1826
28.000000	71.813	-16.5951
28.500000	71.700	-17.0699
29.000000	71.588	-17.5030
29.500000	71.479	-17.9162
30.000000	71.372	-18.3303
30.400000	71.285	-18.6601
30.700001	71.217	-18.8975
31.100000	71.124	-19.1867
31.500000	71.029	-19.4335
32.000000	70.913	-19.6832
32.500000	70.803	-19.8900
33.000000	70.698	-20.0837
33.500000	70.595	-20.2762
34.000000	70.492	-20.4562
34.500000	70.389	-20.6038
35.000000	70.287	-20.7103
35.500000	70.185	-20.7844
36.000000	70.084	-20.8403
36.500000	69.982	-20.8834
37.000000	69.878	-20.9070
37.500000	69.773	-20.8994
38.200001	69.629	-20.8219
38.700001	69.531	-20.7203
39.500000	69.384	-20.5004
40.000000	69.298	-20.3398
40.599998	69.197	-20.1241
41.200001	69.099	-19.8763
41.799999	69.007	-19.6026
42.500000	68.904	-19.2773
43.099998	68.817	-19.0039
43.700001	68.732	-18.7288
44.400002	68.640	-18.4038
45.000000	68.570	-18.1259
45.500000	68.516	-17.8857
46.200001	68.448	-17.5112
46.799999	68.395	-17.1507
47.500000	68.340	-16.7027
48.200001	68.291	-16.2321
48.700001	68.261	-15.8825
49.400002	68.227	-15.3980
50.000000	68.199	-15.0180
50.799999	68.156	-14.5736
51.500000	68.113	-14.2111
52.200001	68.073	-13.8419
53.000000	68.040	-13.4040
53.799999	68.021	-12.9711
54.500000	68.011	-12.6198
55.200001	68.003	-12.2957
56.000000	67.995	-11.9426
57.000000	67.991	-11.5255
58.000000	67.996	-11.1508
59.000000	68.005	-10.7966
60.000000	68.019	-10.4488
60.799999	68.034	-10.2006
61.500000	68.050	-10.0269
62.200001	68.068	-9.8980
63.000000	68.089	-9.7903
64.000000	68.114	-9.6700
65.000000	68.136	-9.5484
66.000000	68.156	-9.4564
67.000000	68.172	-9.4070
68.000000	68.184	-9.3719
69.000000	68.194	-9.3195
70.000000	68.207	-9.2591
71.000000	68.226	-9.2318
72.000000	68.248	-9.2591
73.000000	68.273	-9.3407
74.000000	68.297	-9.4726
75.000000	68.316	-9.6338
76.199997	68.331	-9.8453
77.500000	68.340	-10.1175
78.800003	68.343	-10.4544
80.000000	68.343	-10.7844
81.199997	68.342	-11.0596
82.500000	68.341	-11.2899
83.800003	68.340	-11.5232
85.000000	68.338	-11.7866
86.199997	68.329	-12.0847
87.500000	68.308	-12.4194
88.500000	68.284	-12.6699
90.000000	68.243	-13.0369
91.199997	68.209	-13.3221
92.500000	68.176	-13.6239
93.800003	68.149	-13.9597
95.000000	68.128	-14.3144
96.199997	68.108	-14.6974
97.500000	68.078	-15.1112
98.800003	68.038	-15.4763
100.000000	67.997	-15.7650
101.500000	67.946	-16.1235
103.000000	67.887	-16.5083
104.400002	67.819	-16.8434
106.000000	67.735	-17.1879
107.500000	67.660	-17.4980
109.000000	67.589	-17.7892
110.599998	67.516	-18.0789
112.000000	67.452	-18.3266
113.800003	67.367	-18.6534
115.000000	67.307	-18.8916
117.199997	67.184	-19.3357
118.000000	67.133	-19.4684
120.599998	66.967	-19.7621
122.000000	66.890	-19.8853
124.099998	66.787	-20.1057
125.000000	66.743	-20.2128
126.500000	66.662	-20.3920
128.000000	66.574	-20.5767
131.500000	66.354	-21.0803
132.000000	66.321	-21.1417
134.000000	66.181	-21.3130
136.000000	66.029	-21.4199
138.000000	65.869	-21.5102
140.000000	65.716	-21.5132
143.000000	65.524	-21.3876
145.000000	65.408	-21.3188
147.500000	65.264	-21.1720
150.000000	65.133	-20.8098
152.500000	65.006	-20.3396
155.000000	64.855	-19.9681
157.500000	64.669	-19.7126
160.000000	64.476	-19.5125
162.500000	64.306	-19.2904
165.000000	64.165	-18.9209
167.500000	64.035	-18.3873
170.000000	63.901	-17.8235
172.500000	63.768	-17.3237
175.000000	63.635	-16.8517
177.500000	63.497	-16.3176
180.000000	63.353	-15.7056
182.500000	63.205	-15.0348
185.000000	63.057	-14.3469
187.500000	62.910	-13.6842
190.000000	62.761	-13.0403
192.500000	62.616	-12.4021
195.000000	62.481	-11.7689
197.500000	62.360	-11.1215
200.000000	62.257	-10.4313
203.000000	62.154	-9.5231
206.000000	62.066	-8.5269
209.000000	61.979	-7.4390
212.000000	61.891	-6.2286
214.000000	61.835	-5.3345
218.000000	61.747	-3.3081
220.000000	61.728	-2.1897
224.000000	61.765	0.0202
227.000000	61.850	1.3435
230.000000	61.954	2.2266
233.000000	62.049	2.7259
236.000000	62.115	2.9705
240.000000	62.146	3.0949
243.000000	62.134	3.1438
247.000000	62.091	3.2567
250.000000	62.052	3.4136
254.000000	62.000	3.7408
258.000000	61.943	4.1989
262.000000	61.878	4.7000
265.000000	61.827	5.0780
269.000000	61.758	5.5884
272.000000	61.707	5.9802
276.000000	61.645	6.5160
280.000000	61.585	7.0565
285.000000	61.510	7.7240
290.000000	61.440	8.4450
295.000000	61.373	9.1934
300.000000	61.300	9.9050
304.000000	61.238	10.4559
307.000000	61.192	10.8660
311.000000	61.131	11.4236
315.000000	61.072	12.0181
320.000000	61.002	12.7995
325.000000	60.932	13.5597
330.000000	60.860	14.2695
335.000000	60.790	14.9524
340.000000	60.722	15.6533
345.000000	60.654	16.3945
350.000000	60.584	17.1619
355.000000	60.509	17.9333
360.000000	60.430	18.7031
365.000000	60.350	19.4859
370.000000	60.277	20.2851
375.000000	60.213	21.0999
382.000000	60.123	22.2769
387.000000	60.051	23.1517
395.000000	59.936	24.5480
400.000000	59.873	25.4065
406.000000	59.812	26.4534
412.000000	59.760	27.4915
418.000000	59.701	28.5135
425.000000	59.622	29.7378
431.000000	59.553	30.8421
437.000000	59.493	31.9789
444.000000	59.432	33.3385
450.000000	59.383	34.5286
455.000000	59.347	35.5150
462.000000	59.302	36.8624
468.000000	59.266	37.9938
475.000000	59.223	39.2999
482.000000	59.188	40.5660
487.000000	59.171	41.4379
494.000000	59.152	42.6392
500.000000	59.138	43.6746
508.000000	59.124	45.0777
515.000000	59.114	46.3319
522.000000	59.104	47.5962
530.000000	59.094	49.0225
538.000000	59.086	50.3996
545.000000	59.082	51.5817
552.000000	59.082	52.7747
560.000000	59.089	54.1693
570.000000	59.105	55.9312
580.000000	59.126	57.6349
590.000000	59.151	59.2879
600.000000	59.181	60.8849
608.000000	59.209	62.0916
615.000000	59.236	63.1139
622.000000	59.263	64.1296
630.000000	59.298	65.2987
640.000000	59.351	66.7560
650.000000	59.408	68.1462
660.000000	59.461	69.4542
670.000000	59.512	70.7240
680.000000	59.565	72.0112
690.000000	59.618	73.3100
700.000000	59.671	74.5747
710.000000	59.723	75.7849
720.000000	59.773	76.9319
730.000000	59.825	78.0403
740.000000	59.877	79.1323
750.000000	59.923	80.2306
762.000000	59.972	81.5818
775.000000	60.031	83.0662
788.000000	60.097	84.5231
800.000000	60.162	85.8258
812.000000	60.231	87.0729
825.000000	60.310	88.3712
838.000000	60.390	89.6682
850.000000	60.460	90.8705
862.000000	60.532	92.0396
875.000000	60.614	93.2660
885.000000	60.676	94.1879
900.000000	60.768	95.5275
912.000000	60.843	96.5607
925.000000	60.923	97.6555
938.000000	61.000	98.7227
950.000000	61.068	99.6856
962.000000	61.138	100.6403
975.000000	61.219	101.6598
988.000000	61.305	102.6303
1000.000000	61.386	103.4760
1015.000000	61.487	104.4846
1030.000000	61.584	105.4538
1044.000000	61.667	106.3228
1060.000000	61.761	107.2819
1075.000000	61.850	108.1608
1090.000000	61.934	109.0178
1106.000000	62.015	109.8937
1120.000000	62.084	110.6134
1138.000000	62.175	111.4778
1150.000000	62.237	112.0291
1172.000000	62.352	113.0210
1180.000000	62.392	113.3774
1206.000000	62.523	114.5216
1220.000000	62.593	115.1397
1241.000000	62.705	116.0720
1250.000000	62.757	116.4726
1265.000000	62.850	117.1391
1280.000000	62.945	117.7969
1315.000000	63.142	119.2853
1320.000000	63.163	119.4958
1340.000000	63.220	120.3336
1360.000000	63.226	121.1579
1380.000000	63.190	121.9714
1400.000000	63.137	122.7860
1430.000000	63.076	124.0535
1450.000000	63.064	124.9236
1475.000000	63.078	126.0461
1500.000000	63.117	127.2351
1525.000000	63.177	128.4349
1550.000000	63.253	129.6146
1575.000000	63.329	130.7840
1600.000000	63.395	131.9500
1625.000000	63.462	133.1020
1650.000000	63.532	134.2526
1675.000000	63.605	135.4187
1700.000000	63.676	136.5939
1725.000000	63.746	137.7669
1750.000000	63.822	138.9293
1775.000000	63.907	140.0636
1800.000000	63.997	141.1794
1825.000000	64.090	142.2870
1850.000000	64.183	143.3914
1875.000000	64.277	144.4914
1900.000000	64.374	145.5788
1925.000000	64.477	146.6269
1950.000000	64.585	147.6114
1975.000000	64.696	148.5401
2000.000000	64.809	149.4259
2030.000000	64.954	150.4405
2060.000000	65.110	151.4178
2090.000000	65.267	152.3407
2120.000000	65.416	153.1996
2140.000000	65.513	153.7455
2180.000000	65.712	154.7428
2200.000000	65.817	155.1962
2240.000000	66.038	156.0211
2270.000000	66.206	156.5254
2300.000000	66.372	156.9151
2330.000000	66.536	157.2271
2360.000000	66.698	157.4795
2400.000000	66.910	157.6927
2430.000000	67.065	157.7505
2470.000000	67.261	157.7010
2500.000000	67.398	157.5681
2540.000000	67.568	157.2637
2580.000000	67.726	156.8389
2620.000000	67.870	156.3217
2650.000000	67.967	155.8803
2690.000000	68.084	155.2222
2720.000000	68.161	154.6739
2760.000000	68.249	153.8609
2800.000000	68.322	152.9368
2850.000000	68.386	151.6276
2900.000000	68.414	150.2250
2950.000000	68.408	148.7706
3000.000000	68.366	147.2251
3040.000000	68.306	145.9408
3070.000000	68.246	144.9675
3110.000000	68.146	143.6859
3150.000000	68.023	142.4377
3200.000000	67.832	140.9071
3250.000000	67.600	139.4243
3300.000000	67.325	138.0430
3350.000000	67.009	136.8155
3400.000000	66.654	135.7864
3450.000000	66.265	134.9794
3500.000000	65.845	134.4309
3550.000000	65.402	134.1767
3600.000000	64.945	134.2159
3650.000000	64.485	134.5422
3700.000000	64.028	135.1536
3750.000000	63.588	136.0449
3820.000000	63.008	137.7312
3870.000000	62.622	139.2350
3950.000000	62.055	142.1293
4000.000000	61.733	144.2006
4060.000000	61.380	146.9048
4120.000000	61.070	149.7466
4180.000000	60.804	152.6281
4250.000000	60.552	155.9484
4310.000000	60.381	158.6738
4370.000000	60.249	161.1864
4440.000000	60.143	163.7904
4500.000000	60.089	165.7331
4550.000000	60.062	167.1495
4620.000000	60.035	168.8510
4680.000000	60.008	170.0819
4750.000000	59.955	171.3089
4820.000000	59.869	172.3929
4870.000000	59.785	173.1330
4940.000000	59.637	174.1769
5000.000000	59.486	175.1060
5080.000000	59.259	176.4456
5150.000000	59.040	177.7646
5220.000000	58.806	179.2310
5300.000000	58.529	-178.9178
5380.000000	58.245	-176.8744
5450.000000	57.995	-174.9213
5520.000000	57.754	-172.8167
5600.000000	57.498	-170.2501
5700.000000	57.220	-166.8073
5800.000000	56.993	-163.1288
5900.000000	56.828	-159.2877
6000.000000	56.728	-155.3460
6080.000000	56.686	-152.1374
6150.000000	56.672	-149.3033
6220.000000	56.679	-146.4689
6300.000000	56.716	-143.2573
6400.000000	56.807	-139.2933
6500.000000	56.954	-135.3910
6600.000000	57.166	-131.5960
6700.000000	57.447	-127.9664
6800.000000	57.805	-124.5514
6900.000000	58.239	-121.4156
7000.000000	58.749	-118.6509
7100.000000	59.339	-116.3263
7200.000000	60.012	-114.4995
7300.000000	60.764	-113.2570
7400.000000	61.590	-112.6994
7500.000000	62.485	-112.9164
7620.000000	63.623	-114.3440
7750.000000	64.859	-117.5370
7880.000000	66.001	-122.6938
8000.000000	66.887	-129.3815
8120.000000	67.532	-137.9528
8250.000000	67.854	-149.0501
8380.000000	67.691	-161.2122
8500.000000	67.074	-172.2999
8620.000000	66.046	177.7843
8750.000000	64.579	169.2027
8850.000000	63.293	164.4011
9000.000000	61.262	160.1300
9120.000000	59.648	158.9772
9250.000000	57.986	159.5884
9380.000000	56.456	161.7290
9500.000000	55.179	164.7432
9620.000000	54.042	168.4945
9750.000000	52.971	173.1293
9880.000000	52.061	178.1315
10000.000000	51.352	-177.0401
10150.000000	50.619	-170.8113
10300.000000	50.034	-164.4301
10440.000000	49.605	-158.3573
10600.000000	49.251	-151.3148
10750.000000	49.055	-144.6887
10900.000000	48.994	-138.1074
11060.000000	49.080	-131.1606
11200.000000	49.285	-125.1303
11380.000000	49.735	-117.4694
11500.000000	50.168	-112.5068
11720.000000	51.277	-104.0616
11800.000000	51.787	-101.3159
12060.000000	53.813	-94.2218
12200.000000	55.099	-91.9532
12410.000000	57.189	-91.1725
12500.000000	58.108	-91.9035
12650.000000	59.623	-94.5819
12800.000000	61.073	-99.0258
13150.000000	64.063	-115.6830
13200.000000	64.441	-118.7772
13400.000000	65.790	-133.1120
13600.000000	66.705	-150.6493
13800.000000	66.870	-170.4038
14000.000000	66.071	170.2629
14300.000000	63.342	148.0407
14500.000000	61.012	139.4566
14750.000000	58.182	135.1883
15000.000000	55.956	135.9746
15250.000000	54.552	139.1139
15500.000000	53.913	142.3242
15750.000000	53.974	143.8078
16000.000000	54.705	142.0694
16250.000000	55.906	136.0375
16500.000000	57.186	125.2393
16750.000000	58.134	110.0696
17000.000000	58.427	91.8595
17250.000000	57.890	72.6812
17500.000000	56.535	54.7713
17750.000000	54.529	39.8008
18000.000000	52.112	28.6120
18250.000000	49.532	21.3611
18500.000000	47.019	17.7499
18750.000000	44.753	17.1401
19000.000000	42.844	18.7349
19250.000000	41.341	21.6712
19500.000000	40.227	25.0616
19750.000000	39.467	28.0464
20000.000000	39.077	29.7774
