* Measurement data measured by REW V5.31
* Source: Microphone (4- USB Audio Device), MICROPHONE (Master Volume), R, volume: 0.250
* Format: 256k Log Swept Sine, 1 sweep at -12.0 dBFS with no timing reference
* Dated: 26-Mar-2024 11:40:24
* REW Settings:
*  C-weighting compensation: Off
*  Target level: 75.0 dB
* Note: 
* Measurement: Rose Technics Earfree I3 O
* Smoothing: 1/12 octave
* Frequency Step: 1/48 octave
* Start Frequency: 20.300 Hz
*
* Freq(Hz)	SPL(dB)	Phase(degrees)
20.299999	101.770	66.1375
20.600000	101.792	65.2375
20.900000	101.824	64.0900
21.200001	101.867	62.8707
21.400000	101.904	62.0696
21.799999	101.996	60.5747
22.000000	102.050	59.8994
22.400000	102.169	58.7027
22.700001	102.262	57.9239
23.000000	102.349	57.2203
23.299999	102.428	56.5643
23.600000	102.494	55.9309
24.000000	102.564	55.0876
24.299999	102.607	54.4404
24.700001	102.657	53.5499
25.000000	102.694	52.8645
25.400000	102.749	51.9407
25.799999	102.812	51.0244
26.200001	102.881	50.1335
26.500000	102.933	49.4882
26.900000	102.999	48.6604
27.200001	103.044	48.0616
27.600000	103.100	47.2853
28.000000	103.151	46.5232
28.500000	103.216	45.5718
29.000000	103.287	44.6073
29.500000	103.362	43.6300
30.000000	103.437	42.6552
30.400000	103.493	41.8907
30.700001	103.532	41.3320
31.100000	103.580	40.6104
31.500000	103.625	39.9159
32.000000	103.682	39.0799
32.500000	103.745	38.2637
33.000000	103.816	37.4486
33.500000	103.890	36.6256
34.000000	103.962	35.8029
34.500000	104.030	34.9959
35.000000	104.094	34.2100
35.500000	104.156	33.4345
36.000000	104.216	32.6551
36.500000	104.274	31.8691
37.000000	104.329	31.0849
37.500000	104.384	30.3094
38.200001	104.464	29.2327
38.700001	104.520	28.4643
39.500000	104.608	27.2429
40.000000	104.659	26.4859
40.599998	104.717	25.5725
41.200001	104.770	24.6447
41.799999	104.819	23.7061
42.500000	104.876	22.6058
43.099998	104.928	21.6617
43.700001	104.978	20.7288
44.400002	105.035	19.6808
45.000000	105.082	18.8272
45.500000	105.121	18.1414
46.200001	105.176	17.2016
46.799999	105.220	16.3974
47.500000	105.265	15.4424
48.200001	105.301	14.4642
48.700001	105.323	13.7563
49.400002	105.357	12.7630
50.000000	105.390	11.9200
50.799999	105.438	10.8331
51.500000	105.480	9.9297
52.200001	105.521	9.0501
53.000000	105.562	8.0285
53.799999	105.594	6.9791
54.500000	105.616	6.0576
55.200001	105.636	5.1434
56.000000	105.655	4.1095
57.000000	105.675	2.8451
58.000000	105.693	1.6140
59.000000	105.710	0.3982
60.000000	105.725	-0.8168
60.799999	105.735	-1.7894
61.500000	105.743	-2.6338
62.200001	105.749	-3.4728
63.000000	105.754	-4.4366
64.000000	105.759	-5.6625
65.000000	105.764	-6.9034
66.000000	105.764	-8.1358
67.000000	105.759	-9.3542
68.000000	105.750	-10.5795
69.000000	105.742	-11.8101
70.000000	105.734	-13.0219
71.000000	105.722	-14.1933
72.000000	105.704	-15.3058
73.000000	105.681	-16.3611
74.000000	105.656	-17.3908
75.000000	105.629	-18.4359
76.199997	105.594	-19.7476
77.500000	105.557	-21.2152
78.800003	105.523	-22.6282
80.000000	105.494	-23.8516
81.199997	105.468	-25.0521
82.500000	105.437	-26.3801
83.800003	105.398	-27.7334
85.000000	105.353	-28.9834
86.199997	105.307	-30.2182
87.500000	105.259	-31.5182
88.500000	105.223	-32.4776
90.000000	105.164	-33.8685
91.199997	105.110	-34.9710
92.500000	105.045	-36.1648
93.800003	104.981	-37.3353
95.000000	104.922	-38.3771
96.199997	104.865	-39.3897
97.500000	104.803	-40.4566
98.800003	104.738	-41.4962
100.000000	104.676	-42.4531
101.500000	104.602	-43.6640
103.000000	104.523	-44.8614
104.400002	104.443	-45.9670
106.000000	104.351	-47.2553
107.500000	104.272	-48.4776
109.000000	104.196	-49.6742
110.599998	104.114	-50.9136
112.000000	104.039	-51.9738
113.800003	103.945	-53.2881
115.000000	103.882	-54.1217
117.199997	103.762	-55.5705
118.000000	103.716	-56.0882
120.599998	103.561	-57.7725
122.000000	103.476	-58.6640
124.099998	103.348	-59.9821
125.000000	103.294	-60.5407
126.500000	103.208	-61.4558
128.000000	103.127	-62.3400
131.500000	102.938	-64.2981
132.000000	102.911	-64.5742
134.000000	102.801	-65.6750
136.000000	102.699	-66.7606
138.000000	102.602	-67.8314
140.000000	102.501	-68.8992
143.000000	102.344	-70.5149
145.000000	102.237	-71.5583
147.500000	102.100	-72.8063
150.000000	101.961	-74.0345
152.500000	101.824	-75.2719
155.000000	101.689	-76.4863
157.500000	101.555	-77.6550
160.000000	101.423	-78.8069
162.500000	101.295	-79.9307
165.000000	101.175	-81.0309
167.500000	101.057	-82.1170
170.000000	100.934	-83.1671
172.500000	100.809	-84.1736
175.000000	100.687	-85.1482
177.500000	100.568	-86.0816
180.000000	100.444	-86.9655
182.500000	100.312	-87.8131
185.000000	100.180	-88.6223
187.500000	100.055	-89.3773
190.000000	99.945	-90.0794
192.500000	99.852	-90.7710
195.000000	99.776	-91.5204
197.500000	99.713	-92.3680
200.000000	99.653	-93.2796
203.000000	99.576	-94.3453
206.000000	99.489	-95.3183
209.000000	99.399	-96.1702
212.000000	99.319	-96.9034
214.000000	99.282	-97.3397
218.000000	99.258	-98.1602
220.000000	99.267	-98.6042
224.000000	99.293	-99.6731
227.000000	99.300	-100.6097
230.000000	99.290	-101.5868
233.000000	99.263	-102.5431
236.000000	99.219	-103.4837
240.000000	99.140	-104.7562
243.000000	99.075	-105.7079
247.000000	98.986	-106.9512
250.000000	98.920	-107.8692
254.000000	98.834	-109.0543
258.000000	98.749	-110.1771
262.000000	98.670	-111.2155
265.000000	98.614	-111.9404
269.000000	98.545	-112.8531
272.000000	98.495	-113.5036
276.000000	98.426	-114.3461
280.000000	98.354	-115.2006
285.000000	98.265	-116.2938
290.000000	98.175	-117.3683
295.000000	98.086	-118.3984
300.000000	97.998	-119.3789
304.000000	97.932	-120.1420
307.000000	97.887	-120.7099
311.000000	97.831	-121.4578
315.000000	97.777	-122.1777
320.000000	97.708	-123.0346
325.000000	97.635	-123.8862
330.000000	97.563	-124.7595
335.000000	97.496	-125.6299
340.000000	97.426	-126.4617
345.000000	97.351	-127.2481
350.000000	97.277	-128.0072
355.000000	97.203	-128.7560
360.000000	97.126	-129.5157
365.000000	97.051	-130.3140
370.000000	96.978	-131.1608
375.000000	96.905	-132.0348
382.000000	96.788	-133.2446
387.000000	96.693	-134.0747
395.000000	96.533	-135.3727
400.000000	96.434	-136.1692
406.000000	96.323	-137.1138
412.000000	96.222	-138.0784
418.000000	96.129	-139.0572
425.000000	96.036	-140.1760
431.000000	95.969	-141.1327
437.000000	95.902	-142.0770
444.000000	95.817	-143.1388
450.000000	95.737	-144.0175
455.000000	95.666	-144.7253
462.000000	95.563	-145.6529
468.000000	95.473	-146.3554
475.000000	95.373	-146.9955
482.000000	95.282	-147.4393
487.000000	95.225	-147.6731
494.000000	95.164	-147.9315
500.000000	95.140	-148.1357
508.000000	95.147	-148.4539
515.000000	95.177	-148.7998
522.000000	95.214	-149.2409
530.000000	95.262	-149.8832
538.000000	95.310	-150.6441
545.000000	95.348	-151.3575
552.000000	95.376	-152.0783
560.000000	95.398	-152.9095
570.000000	95.406	-153.9675
580.000000	95.399	-155.0131
590.000000	95.392	-156.0440
600.000000	95.393	-157.0309
608.000000	95.393	-157.7717
615.000000	95.389	-158.3866
622.000000	95.384	-158.9768
630.000000	95.381	-159.6252
640.000000	95.379	-160.4261
650.000000	95.378	-161.2607
660.000000	95.382	-162.1082
670.000000	95.392	-162.8966
680.000000	95.399	-163.5829
690.000000	95.403	-164.1356
700.000000	95.405	-164.6124
710.000000	95.407	-165.1164
720.000000	95.410	-165.6478
730.000000	95.416	-166.1314
740.000000	95.425	-166.5583
750.000000	95.437	-166.9848
762.000000	95.461	-167.5209
775.000000	95.498	-168.0683
788.000000	95.529	-168.5885
800.000000	95.551	-169.0762
812.000000	95.572	-169.5663
825.000000	95.603	-170.0915
838.000000	95.645	-170.5888
850.000000	95.690	-171.0301
862.000000	95.739	-171.4750
875.000000	95.794	-171.9617
885.000000	95.838	-172.3275
900.000000	95.908	-172.8742
912.000000	95.969	-173.3521
925.000000	96.040	-173.9528
938.000000	96.113	-174.6430
950.000000	96.181	-175.3240
962.000000	96.252	-176.0004
975.000000	96.335	-176.6952
988.000000	96.425	-177.3943
1000.000000	96.517	-178.1029
1015.000000	96.639	-179.0997
1030.000000	96.757	179.7648
1044.000000	96.858	178.5710
1060.000000	96.967	177.1011
1075.000000	97.076	175.6885
1090.000000	97.200	174.3057
1106.000000	97.344	172.8976
1120.000000	97.474	171.6516
1138.000000	97.639	169.9082
1150.000000	97.743	168.6564
1172.000000	97.920	166.2559
1180.000000	97.982	165.3802
1206.000000	98.181	162.6330
1220.000000	98.285	161.1776
1241.000000	98.434	158.9474
1250.000000	98.495	157.9751
1265.000000	98.599	156.3500
1280.000000	98.705	154.7386
1315.000000	98.948	151.0345
1320.000000	98.982	150.5029
1340.000000	99.117	148.3804
1360.000000	99.250	146.3023
1380.000000	99.380	144.2632
1400.000000	99.504	142.1899
1430.000000	99.670	138.8487
1450.000000	99.763	136.4246
1475.000000	99.863	133.2737
1500.000000	99.958	130.1446
1525.000000	100.053	127.2102
1550.000000	100.147	124.5447
1575.000000	100.252	122.0919
1600.000000	100.376	119.8317
1625.000000	100.508	117.7458
1650.000000	100.644	115.7820
1675.000000	100.789	113.9077
1700.000000	100.943	112.1094
1725.000000	101.101	110.3557
1750.000000	101.258	108.5862
1775.000000	101.408	106.7556
1800.000000	101.548	104.8557
1825.000000	101.681	102.8826
1850.000000	101.812	100.8270
1875.000000	101.946	98.7130
1900.000000	102.087	96.5927
1925.000000	102.236	94.4957
1950.000000	102.389	92.4210
1975.000000	102.545	90.3337
2000.000000	102.704	88.1866
2030.000000	102.905	85.4844
2060.000000	103.110	82.6059
2090.000000	103.319	79.5554
2120.000000	103.534	76.3871
2140.000000	103.681	74.2511
2180.000000	103.977	70.0069
2200.000000	104.125	67.8929
2240.000000	104.410	63.6393
2270.000000	104.613	60.4480
2300.000000	104.802	57.3257
2330.000000	104.981	54.3334
2360.000000	105.149	51.5075
2400.000000	105.350	48.0042
2430.000000	105.479	45.5648
2470.000000	105.626	42.5062
2500.000000	105.713	40.2600
2540.000000	105.792	37.1625
2580.000000	105.834	33.8564
2620.000000	105.844	30.3769
2650.000000	105.832	27.7371
2690.000000	105.796	24.3206
2720.000000	105.759	21.8920
2760.000000	105.704	18.8092
2800.000000	105.649	15.8356
2850.000000	105.586	12.2897
2900.000000	105.535	9.0212
2950.000000	105.489	5.9638
3000.000000	105.432	2.8602
3040.000000	105.370	0.1953
3070.000000	105.316	-1.8874
3110.000000	105.232	-4.7067
3150.000000	105.125	-7.5058
3200.000000	104.947	-10.9001
3250.000000	104.708	-14.0862
3300.000000	104.414	-16.9347
3350.000000	104.086	-19.2073
3400.000000	103.750	-20.6945
3450.000000	103.426	-21.3217
3500.000000	103.135	-21.1660
3550.000000	102.884	-20.5232
3600.000000	102.676	-19.7394
3650.000000	102.515	-19.0148
3700.000000	102.403	-18.4348
3750.000000	102.337	-18.0580
3820.000000	102.313	-17.8670
3870.000000	102.342	-17.8190
3950.000000	102.460	-17.6687
4000.000000	102.559	-17.6439
4060.000000	102.689	-17.8889
4120.000000	102.825	-18.3718
4180.000000	102.962	-18.8911
4250.000000	103.106	-19.4210
4310.000000	103.211	-19.7196
4370.000000	103.299	-19.7677
4440.000000	103.382	-19.5339
4500.000000	103.437	-19.1486
4550.000000	103.477	-18.7339
4620.000000	103.524	-18.1752
4680.000000	103.556	-17.9523
4750.000000	103.580	-18.2319
4820.000000	103.595	-19.0769
4870.000000	103.602	-19.9299
4940.000000	103.603	-21.4199
5000.000000	103.588	-23.0364
5080.000000	103.524	-25.7897
5150.000000	103.415	-28.5573
5220.000000	103.254	-31.1991
5300.000000	103.001	-33.6413
5380.000000	102.659	-35.3409
5450.000000	102.290	-36.1985
5520.000000	101.864	-36.4443
5600.000000	101.323	-35.9637
5700.000000	100.600	-34.3986
5800.000000	99.860	-32.1906
5900.000000	99.152	-29.4775
6000.000000	98.507	-26.3112
6080.000000	98.054	-23.4786
6150.000000	97.713	-20.7563
6220.000000	97.427	-17.8303
6300.000000	97.170	-14.2976
6400.000000	96.953	-9.5875
6500.000000	96.849	-4.4716
6600.000000	96.857	1.0433
6700.000000	96.981	6.6906
6800.000000	97.219	11.8470
6900.000000	97.573	16.1416
7000.000000	98.044	19.6586
7100.000000	98.625	22.4600
7200.000000	99.309	24.4807
7300.000000	100.079	25.6530
7400.000000	100.900	25.7538
7500.000000	101.717	24.3947
7620.000000	102.587	20.2805
7750.000000	103.248	12.7716
7880.000000	103.499	3.5771
8000.000000	103.337	-4.7526
8120.000000	102.826	-12.2047
8250.000000	101.969	-18.9924
8380.000000	100.939	-23.9634
8500.000000	99.944	-26.6289
8620.000000	98.978	-27.3211
8750.000000	98.010	-25.9496
8850.000000	97.336	-23.6376
9000.000000	96.447	-18.7709
9120.000000	95.824	-14.1222
9250.000000	95.224	-8.2916
9380.000000	94.697	-1.4947
9500.000000	94.258	5.4574
9620.000000	93.853	12.8079
9750.000000	93.445	21.1204
9880.000000	93.063	30.0691
10000.000000	92.729	39.2478
10150.000000	92.326	52.1405
10300.000000	91.938	66.5275
10440.000000	91.595	80.9539
10600.000000	91.228	97.7769
10750.000000	90.913	113.2106
10900.000000	90.644	128.2900
11060.000000	90.433	144.3496
11200.000000	90.322	158.5331
11380.000000	90.294	177.2893
11500.000000	90.359	-169.4701
11720.000000	90.684	-143.6119
11800.000000	90.873	-134.0739
12060.000000	91.780	-104.4979
12200.000000	92.479	-90.0184
12410.000000	93.835	-70.2873
12500.000000	94.527	-62.5292
12650.000000	95.803	-50.5749
12800.000000	97.172	-40.1856
13150.000000	100.040	-25.1352
13200.000000	100.336	-24.0515
13400.000000	101.071	-21.5523
13600.000000	100.998	-20.0755
13800.000000	100.227	-16.7131
14000.000000	99.051	-9.3199
14300.000000	97.200	9.5320
14500.000000	96.203	24.4516
14750.000000	95.321	41.7623
15000.000000	94.737	56.7905
15250.000000	94.223	69.9650
15500.000000	93.537	82.1383
15750.000000	92.512	95.1975
16000.000000	91.109	111.2493
16250.000000	89.446	131.4740
16500.000000	87.719	155.2491
16750.000000	86.093	-179.6875
17000.000000	84.627	-155.3209
17250.000000	83.288	-131.9551
17500.000000	82.018	-109.5212
17750.000000	80.760	-88.5291
18000.000000	79.499	-67.9866
18250.000000	78.287	-45.7677
18500.000000	77.201	-20.4929
18750.000000	76.287	7.3951
19000.000000	75.558	35.2218
19250.000000	74.976	57.9419
19500.000000	74.483	71.3802
19750.000000	74.083	76.2434
20000.000000	73.852	76.8787
