* Measurement data measured by REW V5.31
* Source: Microphone (4- USB Audio Device), MICROPHONE (Master Volume), R, volume: 0.250
* Format: 256k Log Swept Sine, 1 sweep at -12.0 dBFS with no timing reference
* Dated: 26-Mar-2024 11:41:35
* REW Settings:
*  C-weighting compensation: Off
*  Target level: 75.0 dB
* Note: 
* Measurement: Rose Technics I3 Hifi ANC
* Smoothing: 1/12 octave
* Frequency Step: 1/48 octave
* Start Frequency: 20.300 Hz
*
* Freq(Hz)	SPL(dB)	Phase(degrees)
20.299999	99.790	49.2724
20.600000	99.709	48.5064
20.900000	99.627	47.6229
21.200001	99.574	46.7639
21.400000	99.562	46.2160
21.799999	99.591	45.1539
22.000000	99.623	44.6355
22.400000	99.695	43.6573
22.700001	99.739	43.0234
23.000000	99.767	42.5086
23.299999	99.779	42.1113
23.600000	99.779	41.7969
24.000000	99.766	41.4100
24.299999	99.751	41.0792
24.700001	99.725	40.5364
25.000000	99.707	40.0600
25.400000	99.689	39.3755
25.799999	99.685	38.6856
26.200001	99.696	38.0255
26.500000	99.710	37.5603
26.900000	99.728	36.9908
27.200001	99.738	36.6097
27.600000	99.743	36.1699
28.000000	99.743	35.7999
28.500000	99.747	35.3880
29.000000	99.765	34.9583
29.500000	99.796	34.4607
30.000000	99.832	33.9010
30.400000	99.858	33.4356
30.700001	99.875	33.0912
31.100000	99.895	32.6489
31.500000	99.913	32.2298
32.000000	99.938	31.7324
32.500000	99.969	31.2512
33.000000	100.007	30.7748
33.500000	100.051	30.2978
34.000000	100.098	29.8179
34.500000	100.145	29.3328
35.000000	100.188	28.8403
35.500000	100.228	28.3429
36.000000	100.265	27.8461
36.500000	100.300	27.3481
37.000000	100.335	26.8329
37.500000	100.369	26.2788
38.200001	100.410	25.4366
38.700001	100.436	24.8306
39.500000	100.484	23.9418
40.000000	100.524	23.4303
40.599998	100.577	22.8099
41.200001	100.626	22.1525
41.799999	100.666	21.4638
42.500000	100.705	20.6420
43.099998	100.737	19.9333
43.700001	100.769	19.2357
44.400002	100.806	18.4552
45.000000	100.835	17.8126
45.500000	100.857	17.2836
46.200001	100.886	16.5398
46.799999	100.909	15.8953
47.500000	100.937	15.1263
48.200001	100.961	14.3302
48.700001	100.973	13.7550
49.400002	100.986	12.9678
50.000000	100.997	12.3199
50.799999	101.013	11.4765
51.500000	101.024	10.7448
52.200001	101.029	10.0201
53.000000	101.029	9.1888
53.799999	101.027	8.3435
54.500000	101.024	7.6070
55.200001	101.020	6.8879
56.000000	101.012	6.0795
57.000000	100.992	5.0688
58.000000	100.971	4.0686
59.000000	100.956	3.1114
60.000000	100.944	2.1926
60.799999	100.932	1.4676
61.500000	100.919	0.8399
62.200001	100.906	0.2226
63.000000	100.892	-0.4688
64.000000	100.873	-1.3201
65.000000	100.849	-2.1786
66.000000	100.816	-3.0482
67.000000	100.775	-3.8877
68.000000	100.731	-4.6755
69.000000	100.690	-5.4479
70.000000	100.656	-6.2295
71.000000	100.630	-6.9982
72.000000	100.604	-7.7271
73.000000	100.574	-8.4134
74.000000	100.535	-9.0794
75.000000	100.489	-9.7359
76.199997	100.429	-10.4960
77.500000	100.372	-11.3043
78.800003	100.322	-12.1243
80.000000	100.273	-12.8795
81.199997	100.224	-13.6193
82.500000	100.177	-14.4048
83.800003	100.131	-15.1767
85.000000	100.082	-15.8676
86.199997	100.029	-16.5227
87.500000	99.975	-17.1821
88.500000	99.938	-17.6601
90.000000	99.884	-18.3608
91.199997	99.840	-18.9186
92.500000	99.790	-19.5141
93.800003	99.741	-20.1273
95.000000	99.695	-20.7249
96.199997	99.646	-21.3213
97.500000	99.592	-21.9306
98.800003	99.539	-22.4919
100.000000	99.493	-22.9797
101.500000	99.440	-23.5805
103.000000	99.389	-24.1897
104.400002	99.338	-24.7643
106.000000	99.275	-25.4207
107.500000	99.212	-26.0163
109.000000	99.150	-26.5833
110.599998	99.085	-27.1491
112.000000	99.030	-27.6118
113.800003	98.963	-28.1758
115.000000	98.919	-28.5425
117.199997	98.841	-29.1845
118.000000	98.815	-29.4025
120.599998	98.736	-30.0473
122.000000	98.692	-30.3535
124.099998	98.625	-30.7719
125.000000	98.597	-30.9409
126.500000	98.551	-31.2131
128.000000	98.506	-31.4764
131.500000	98.398	-32.0755
132.000000	98.383	-32.1647
134.000000	98.320	-32.5488
136.000000	98.258	-32.9572
138.000000	98.197	-33.3405
140.000000	98.132	-33.6936
143.000000	98.026	-34.2081
145.000000	97.953	-34.5317
147.500000	97.870	-34.8995
150.000000	97.793	-35.2357
152.500000	97.714	-35.5717
155.000000	97.634	-35.8975
157.500000	97.560	-36.1734
160.000000	97.486	-36.3927
162.500000	97.411	-36.5870
165.000000	97.334	-36.7949
167.500000	97.253	-37.0122
170.000000	97.170	-37.2034
172.500000	97.090	-37.3649
175.000000	97.010	-37.5034
177.500000	96.930	-37.6151
180.000000	96.848	-37.6928
182.500000	96.762	-37.7224
185.000000	96.674	-37.7219
187.500000	96.591	-37.7154
190.000000	96.515	-37.7098
192.500000	96.447	-37.6987
195.000000	96.387	-37.6655
197.500000	96.337	-37.5931
200.000000	96.293	-37.4910
203.000000	96.235	-37.3612
206.000000	96.176	-37.2356
209.000000	96.123	-37.1058
212.000000	96.079	-36.9273
214.000000	96.055	-36.7549
218.000000	96.020	-36.3019
220.000000	96.013	-36.0590
224.000000	96.019	-35.5962
227.000000	96.030	-35.2774
230.000000	96.039	-34.9937
233.000000	96.047	-34.7165
236.000000	96.055	-34.4094
240.000000	96.064	-33.9960
243.000000	96.070	-33.7170
247.000000	96.079	-33.3676
250.000000	96.087	-33.1090
254.000000	96.103	-32.7403
258.000000	96.129	-32.3353
262.000000	96.158	-31.9253
265.000000	96.178	-31.6334
269.000000	96.204	-31.2828
272.000000	96.226	-31.0597
276.000000	96.261	-30.8225
280.000000	96.302	-30.6348
285.000000	96.358	-30.4359
290.000000	96.417	-30.2639
295.000000	96.483	-30.0909
300.000000	96.553	-29.9651
304.000000	96.614	-29.9056
307.000000	96.662	-29.8725
311.000000	96.730	-29.8407
315.000000	96.801	-29.8180
320.000000	96.892	-29.7818
325.000000	96.990	-29.7492
330.000000	97.099	-29.7618
335.000000	97.216	-29.8313
340.000000	97.336	-29.9459
345.000000	97.451	-30.1206
350.000000	97.564	-30.3877
355.000000	97.675	-30.7441
360.000000	97.786	-31.1668
365.000000	97.901	-31.6673
370.000000	98.020	-32.2591
375.000000	98.142	-32.9333
382.000000	98.320	-33.9566
387.000000	98.449	-34.7174
395.000000	98.654	-36.0285
400.000000	98.768	-36.9258
406.000000	98.881	-38.0349
412.000000	98.976	-39.1342
418.000000	99.065	-40.2266
425.000000	99.173	-41.5064
431.000000	99.271	-42.6330
437.000000	99.370	-43.8088
444.000000	99.474	-45.2606
450.000000	99.544	-46.5876
455.000000	99.588	-47.7600
462.000000	99.633	-49.4851
468.000000	99.653	-50.9771
475.000000	99.649	-52.6362
482.000000	99.616	-54.1443
487.000000	99.582	-55.1105
494.000000	99.535	-56.3047
500.000000	99.506	-57.1931
508.000000	99.490	-58.2771
515.000000	99.486	-59.2438
522.000000	99.486	-60.2608
530.000000	99.491	-61.4568
538.000000	99.498	-62.7025
545.000000	99.501	-63.8466
552.000000	99.494	-65.0317
560.000000	99.466	-66.4326
570.000000	99.404	-68.2146
580.000000	99.331	-69.9398
590.000000	99.258	-71.5143
600.000000	99.181	-72.9385
608.000000	99.114	-73.9830
615.000000	99.054	-74.8077
622.000000	98.992	-75.5540
630.000000	98.922	-76.3415
640.000000	98.836	-77.2447
650.000000	98.747	-78.0825
660.000000	98.646	-78.9116
670.000000	98.535	-79.7181
680.000000	98.431	-80.4734
690.000000	98.342	-81.1762
700.000000	98.262	-81.8335
710.000000	98.185	-82.4334
720.000000	98.115	-82.9592
730.000000	98.049	-83.4313
740.000000	97.986	-83.8692
750.000000	97.921	-84.2564
762.000000	97.840	-84.5910
775.000000	97.749	-84.7828
788.000000	97.656	-84.8981
800.000000	97.582	-84.9693
812.000000	97.529	-84.9577
825.000000	97.491	-84.8298
838.000000	97.465	-84.5840
850.000000	97.444	-84.2947
862.000000	97.431	-83.9608
875.000000	97.426	-83.5433
885.000000	97.428	-83.1802
900.000000	97.434	-82.5679
912.000000	97.445	-82.0487
925.000000	97.465	-81.4843
938.000000	97.497	-80.9220
950.000000	97.534	-80.3901
962.000000	97.574	-79.8363
975.000000	97.622	-79.2518
988.000000	97.679	-78.7384
1000.000000	97.740	-78.3390
1015.000000	97.821	-77.9514
1030.000000	97.904	-77.7019
1044.000000	97.983	-77.5656
1060.000000	98.076	-77.4871
1075.000000	98.166	-77.4892
1090.000000	98.262	-77.5802
1106.000000	98.376	-77.7885
1120.000000	98.485	-78.0685
1138.000000	98.631	-78.5603
1150.000000	98.727	-78.9635
1172.000000	98.897	-79.8612
1180.000000	98.956	-80.2249
1206.000000	99.138	-81.3769
1220.000000	99.225	-81.9141
1241.000000	99.345	-82.6012
1250.000000	99.395	-82.8549
1265.000000	99.480	-83.2304
1280.000000	99.567	-83.5607
1315.000000	99.777	-84.2390
1320.000000	99.807	-84.3400
1340.000000	99.924	-84.7919
1360.000000	100.037	-85.3267
1380.000000	100.149	-85.9459
1400.000000	100.261	-86.6801
1430.000000	100.412	-88.0861
1450.000000	100.493	-89.2012
1475.000000	100.575	-90.6727
1500.000000	100.644	-92.1486
1525.000000	100.712	-93.5390
1550.000000	100.796	-94.7946
1575.000000	100.893	-95.9113
1600.000000	100.992	-96.8999
1625.000000	101.103	-97.7954
1650.000000	101.236	-98.6628
1675.000000	101.385	-99.5720
1700.000000	101.538	-100.5809
1725.000000	101.686	-101.7006
1750.000000	101.828	-102.9238
1775.000000	101.958	-104.2180
1800.000000	102.079	-105.5182
1825.000000	102.197	-106.7720
1850.000000	102.316	-107.9797
1875.000000	102.435	-109.1601
1900.000000	102.559	-110.3175
1925.000000	102.695	-111.4454
1950.000000	102.840	-112.5454
1975.000000	102.987	-113.6573
2000.000000	103.133	-114.8509
2030.000000	103.307	-116.4388
2060.000000	103.488	-118.1093
2090.000000	103.682	-119.7488
2120.000000	103.892	-121.3361
2140.000000	104.035	-122.3796
2180.000000	104.309	-124.5066
2200.000000	104.443	-125.6178
2240.000000	104.709	-127.9991
2270.000000	104.905	-129.9647
2300.000000	105.089	-132.0774
2330.000000	105.259	-134.3437
2360.000000	105.409	-136.7639
2400.000000	105.581	-140.1402
2430.000000	105.694	-142.6779
2470.000000	105.818	-145.9707
2500.000000	105.887	-148.3724
2540.000000	105.950	-151.5121
2580.000000	105.982	-154.6615
2620.000000	105.984	-157.9763
2650.000000	105.966	-160.6410
2690.000000	105.917	-164.4155
2720.000000	105.868	-167.3323
2760.000000	105.801	-171.1845
2800.000000	105.737	-174.8414
2850.000000	105.660	-179.0845
2900.000000	105.590	176.7820
2950.000000	105.527	172.4825
3000.000000	105.460	167.9042
3040.000000	105.397	164.0081
3070.000000	105.342	160.9623
3110.000000	105.251	156.8241
3150.000000	105.131	152.7531
3200.000000	104.931	147.9552
3250.000000	104.665	143.6389
3300.000000	104.346	140.0284
3350.000000	103.996	137.1957
3400.000000	103.628	134.9769
3450.000000	103.262	133.2838
3500.000000	102.925	132.1693
3550.000000	102.626	131.6078
3600.000000	102.370	131.5124
3650.000000	102.165	131.8184
3700.000000	102.010	132.4644
3750.000000	101.910	133.3800
3820.000000	101.854	134.7274
3870.000000	101.859	135.3480
3950.000000	101.914	135.4966
4000.000000	101.981	135.3789
4060.000000	102.104	135.4197
4120.000000	102.258	135.6226
4180.000000	102.430	135.7358
4250.000000	102.646	135.5470
4310.000000	102.834	135.0696
4370.000000	103.012	134.4103
4440.000000	103.205	133.7667
4500.000000	103.368	133.6494
4550.000000	103.505	133.8934
4620.000000	103.687	134.5192
4680.000000	103.831	135.1512
4750.000000	103.985	135.9546
4820.000000	104.126	136.8441
4870.000000	104.217	137.5237
4940.000000	104.322	138.4314
5000.000000	104.382	138.9940
5080.000000	104.399	139.2581
5150.000000	104.343	139.1334
5220.000000	104.214	138.8577
5300.000000	103.964	138.4834
5380.000000	103.604	138.2232
5450.000000	103.201	138.1950
5520.000000	102.726	138.3418
5600.000000	102.119	138.7315
5700.000000	101.313	139.7310
5800.000000	100.504	141.4719
5900.000000	99.741	143.9994
6000.000000	99.061	147.4642
6080.000000	98.593	151.1096
6150.000000	98.252	154.9945
6220.000000	97.976	159.4001
6300.000000	97.737	164.7814
6400.000000	97.550	171.5385
6500.000000	97.477	177.8997
6600.000000	97.516	-176.2208
6700.000000	97.672	-170.6103
6800.000000	97.949	-165.2235
6900.000000	98.344	-160.1902
7000.000000	98.857	-155.5282
7100.000000	99.487	-151.1410
7200.000000	100.226	-147.1556
7300.000000	101.051	-143.9444
7400.000000	101.924	-141.8335
7500.000000	102.789	-141.0308
7620.000000	103.718	-142.0293
7750.000000	104.436	-145.7069
7880.000000	104.721	-151.4417
8000.000000	104.573	-157.0368
8120.000000	104.082	-161.5102
8250.000000	103.270	-164.6088
8380.000000	102.292	-166.2786
8500.000000	101.352	-166.8925
8620.000000	100.450	-166.8515
8750.000000	99.561	-166.4383
8850.000000	98.948	-166.0717
9000.000000	98.150	-165.4481
9120.000000	97.613	-164.8710
9250.000000	97.112	-164.4649
9380.000000	96.674	-164.4899
9500.000000	96.312	-164.7133
9620.000000	95.979	-164.8090
9750.000000	95.641	-164.6042
9880.000000	95.314	-164.1742
10000.000000	95.012	-163.6700
10150.000000	94.626	-162.9861
10300.000000	94.230	-162.4113
10440.000000	93.858	-162.1404
10600.000000	93.443	-162.3032
10750.000000	93.082	-162.8419
10900.000000	92.772	-163.3698
11060.000000	92.523	-163.4906
11200.000000	92.383	-163.2215
11380.000000	92.309	-162.5727
11500.000000	92.339	-161.6995
11720.000000	92.608	-158.0448
11800.000000	92.784	-156.0064
12060.000000	93.686	-148.3315
12200.000000	94.393	-144.5144
12410.000000	95.779	-140.0994
12500.000000	96.490	-138.9841
12650.000000	97.790	-138.7746
12800.000000	99.160	-141.1511
13150.000000	101.926	-157.3828
13200.000000	102.198	-160.6908
13400.000000	102.826	-175.1151
13600.000000	102.668	170.4750
13800.000000	101.861	158.3014
14000.000000	100.711	149.8043
14300.000000	98.997	144.4403
14500.000000	98.127	145.1688
14750.000000	97.398	149.2637
15000.000000	96.896	153.6559
15250.000000	96.353	156.0507
15500.000000	95.543	156.7630
15750.000000	94.328	157.4720
16000.000000	92.718	159.9556
16250.000000	90.863	165.3761
16500.000000	88.981	174.2748
16750.000000	87.234	-174.6923
17000.000000	85.653	-164.2530
17250.000000	84.189	-155.3135
17500.000000	82.783	-146.6734
17750.000000	81.396	-136.6180
18000.000000	80.037	-123.6029
18250.000000	78.743	-106.8793
18500.000000	77.570	-87.0329
18750.000000	76.571	-65.8554
19000.000000	75.757	-44.7891
19250.000000	75.096	-23.9762
19500.000000	74.530	-3.9769
19750.000000	74.054	12.7256
20000.000000	73.766	22.3469
