* Measurement data measured by REW V5.31.3
* Source: Microphone (6- USB Sound Device        ), MICROPHONE (Master Volume), L, volume: 0.700
* Format: 256k Log Swept Sine, 1 sweep at -12.0 dBFS with no timing reference
* Dated: 23-May-2025 14:57:42
* REW Settings:
*  C-weighting compensation: Off
*  Target level: 75.0 dB
* Note: 
* Measurement: Rose Ceramics X ANC Hifi L
* Smoothing: 1/12 octave
* Frequency Step: 1/48 octave
* Start Frequency: 20.300 Hz
*
* Freq(Hz)	SPL(dB)	Phase(degrees)
20.299999	68.657	-39.1123
20.600000	68.596	-38.4481
20.900000	68.520	-37.6267
21.200001	68.445	-36.7722
21.400000	68.397	-36.2110
21.799999	68.312	-35.1342
22.000000	68.275	-34.6219
22.400000	68.212	-33.6478
22.700001	68.173	-32.9556
23.000000	68.140	-32.2884
23.299999	68.110	-31.6396
23.600000	68.084	-31.0049
24.000000	68.052	-30.1808
24.299999	68.031	-29.5850
24.700001	68.006	-28.8331
25.000000	67.990	-28.3089
25.400000	67.972	-27.6690
25.799999	67.955	-27.0947
26.200001	67.938	-26.5754
26.500000	67.925	-26.2123
26.900000	67.906	-25.7495
27.200001	67.892	-25.4109
27.600000	67.874	-24.9666
28.000000	67.860	-24.5357
28.500000	67.846	-24.0363
29.000000	67.832	-23.5991
29.500000	67.814	-23.2150
30.000000	67.790	-22.8512
30.400000	67.768	-22.5581
30.700001	67.752	-22.3380
31.100000	67.732	-22.0549
31.500000	67.714	-21.7957
32.000000	67.692	-21.5093
32.500000	67.669	-21.2453
33.000000	67.644	-20.9759
33.500000	67.619	-20.6902
34.000000	67.595	-20.3952
34.500000	67.569	-20.1001
35.000000	67.541	-19.8062
35.500000	67.510	-19.5122
36.000000	67.478	-19.2211
36.500000	67.447	-18.9380
37.000000	67.419	-18.6631
37.500000	67.392	-18.3906
38.200001	67.355	-17.9978
38.700001	67.327	-17.6999
39.500000	67.283	-17.1891
40.000000	67.256	-16.8601
40.599998	67.230	-16.4771
41.200001	67.212	-16.1168
41.799999	67.202	-15.7690
42.500000	67.196	-15.3515
43.099998	67.191	-14.9657
43.700001	67.183	-14.5529
44.400002	67.173	-14.0670
45.000000	67.167	-13.6857
45.500000	67.164	-13.4020
46.200001	67.163	-13.0303
46.799999	67.169	-12.7112
47.500000	67.185	-12.3537
48.200001	67.205	-12.0471
48.700001	67.218	-11.8548
49.400002	67.234	-11.5887
50.000000	67.245	-11.3476
50.799999	67.261	-11.0352
51.500000	67.273	-10.8071
52.200001	67.283	-10.6270
53.000000	67.292	-10.4527
53.799999	67.306	-10.2904
54.500000	67.323	-10.1606
55.200001	67.342	-10.0543
56.000000	67.361	-9.9688
57.000000	67.377	-9.9017
58.000000	67.388	-9.8435
59.000000	67.402	-9.7730
60.000000	67.424	-9.7244
60.799999	67.443	-9.7474
61.500000	67.457	-9.8141
62.200001	67.464	-9.8914
63.000000	67.466	-9.9533
64.000000	67.463	-9.9764
65.000000	67.459	-9.9848
66.000000	67.456	-10.0457
67.000000	67.454	-10.1839
68.000000	67.449	-10.3543
69.000000	67.435	-10.4995
70.000000	67.414	-10.6134
71.000000	67.389	-10.7254
72.000000	67.367	-10.8504
73.000000	67.346	-10.9871
74.000000	67.328	-11.1347
75.000000	67.308	-11.2865
76.199997	67.278	-11.4489
77.500000	67.233	-11.5823
78.800003	67.179	-11.6974
80.000000	67.131	-11.8092
81.199997	67.088	-11.8959
82.500000	67.045	-11.9378
83.800003	66.998	-11.9668
85.000000	66.952	-11.9900
86.199997	66.908	-11.9867
87.500000	66.863	-11.9626
88.500000	66.827	-11.9532
90.000000	66.769	-11.9633
91.199997	66.719	-11.9645
92.500000	66.664	-11.9265
93.800003	66.612	-11.8397
95.000000	66.568	-11.7401
96.199997	66.526	-11.6592
97.500000	66.480	-11.6153
98.800003	66.432	-11.6077
100.000000	66.390	-11.6021
101.500000	66.339	-11.5478
103.000000	66.289	-11.4096
104.400002	66.243	-11.2335
106.000000	66.193	-11.0541
107.500000	66.148	-10.9326
109.000000	66.097	-10.8382
110.599998	66.035	-10.7547
112.000000	65.981	-10.6934
113.800003	65.922	-10.6228
115.000000	65.887	-10.5783
117.199997	65.828	-10.4959
118.000000	65.809	-10.4589
120.599998	65.748	-10.3181
122.000000	65.710	-10.2439
124.099998	65.644	-10.1337
125.000000	65.615	-10.0914
126.500000	65.571	-10.0292
128.000000	65.528	-9.9607
131.500000	65.421	-9.7461
132.000000	65.403	-9.7164
134.000000	65.327	-9.6085
136.000000	65.249	-9.5037
138.000000	65.174	-9.3784
140.000000	65.103	-9.2343
143.000000	64.996	-8.9859
145.000000	64.920	-8.8173
147.500000	64.824	-8.6172
150.000000	64.729	-8.4121
152.500000	64.636	-8.2011
155.000000	64.541	-7.9780
157.500000	64.439	-7.7332
160.000000	64.335	-7.4741
162.500000	64.241	-7.1844
165.000000	64.160	-6.8439
167.500000	64.079	-6.4762
170.000000	63.991	-6.0876
172.500000	63.897	-5.6545
175.000000	63.803	-5.1581
177.500000	63.712	-4.6333
180.000000	63.621	-4.1302
182.500000	63.527	-3.6731
185.000000	63.427	-3.2507
187.500000	63.319	-2.8185
190.000000	63.205	-2.3506
192.500000	63.097	-1.8474
195.000000	63.001	-1.3221
197.500000	62.916	-0.8016
200.000000	62.846	-0.2933
203.000000	62.783	0.3384
206.000000	62.734	1.0021
209.000000	62.687	1.6542
212.000000	62.636	2.2978
214.000000	62.598	2.7506
218.000000	62.502	3.7733
220.000000	62.447	4.3517
224.000000	62.339	5.6158
227.000000	62.282	6.6306
230.000000	62.256	7.6717
233.000000	62.252	8.6756
236.000000	62.261	9.5813
240.000000	62.274	10.6222
243.000000	62.278	11.3176
247.000000	62.271	12.1777
250.000000	62.262	12.7778
254.000000	62.252	13.5344
258.000000	62.243	14.2722
262.000000	62.229	14.9965
265.000000	62.216	15.5307
269.000000	62.200	16.2382
272.000000	62.191	16.7598
276.000000	62.182	17.4374
280.000000	62.177	18.0992
285.000000	62.171	18.9002
290.000000	62.166	19.6695
295.000000	62.155	20.4458
300.000000	62.136	21.2364
304.000000	62.123	21.8480
307.000000	62.116	22.2899
311.000000	62.106	22.8624
315.000000	62.096	23.4176
320.000000	62.084	24.0916
325.000000	62.078	24.7382
330.000000	62.080	25.3417
335.000000	62.084	25.8993
340.000000	62.081	26.4336
345.000000	62.072	26.9935
350.000000	62.058	27.5918
355.000000	62.037	28.1955
360.000000	62.016	28.7558
365.000000	61.998	29.2691
370.000000	61.980	29.7902
375.000000	61.961	30.3534
382.000000	61.932	31.1254
387.000000	61.911	31.6174
395.000000	61.885	32.3643
400.000000	61.871	32.8300
406.000000	61.847	33.3916
412.000000	61.812	33.9862
418.000000	61.773	34.6067
425.000000	61.722	35.3272
431.000000	61.678	35.9055
437.000000	61.636	36.4471
444.000000	61.587	37.1169
450.000000	61.540	37.7642
455.000000	61.496	38.3436
462.000000	61.433	39.1753
468.000000	61.388	39.8911
475.000000	61.346	40.7162
482.000000	61.309	41.5075
487.000000	61.283	42.0566
494.000000	61.249	42.8376
500.000000	61.221	43.5527
508.000000	61.174	44.5334
515.000000	61.121	45.3534
522.000000	61.063	46.1342
530.000000	60.999	47.0289
538.000000	60.938	47.9445
545.000000	60.885	48.7521
552.000000	60.835	49.5660
560.000000	60.780	50.5053
570.000000	60.715	51.6988
580.000000	60.653	52.9513
590.000000	60.597	54.2777
600.000000	60.547	55.6226
608.000000	60.510	56.7058
615.000000	60.477	57.6504
622.000000	60.440	58.5901
630.000000	60.395	59.6620
640.000000	60.342	61.0066
650.000000	60.298	62.3399
660.000000	60.253	63.6647
670.000000	60.205	65.0026
680.000000	60.156	66.3634
690.000000	60.107	67.7089
700.000000	60.061	69.0195
710.000000	60.019	70.3691
720.000000	59.982	71.7688
730.000000	59.952	73.1561
740.000000	59.925	74.5443
750.000000	59.901	75.9943
762.000000	59.875	77.8222
775.000000	59.850	79.7831
788.000000	59.835	81.7288
800.000000	59.830	83.6023
812.000000	59.834	85.5431
825.000000	59.850	87.6401
838.000000	59.880	89.6728
850.000000	59.917	91.5289
862.000000	59.960	93.3875
875.000000	60.018	95.4067
885.000000	60.072	96.9443
900.000000	60.164	99.1999
912.000000	60.247	100.9501
925.000000	60.345	102.7760
938.000000	60.444	104.5384
950.000000	60.539	106.1058
962.000000	60.642	107.6025
975.000000	60.761	109.1693
988.000000	60.885	110.7245
1000.000000	61.002	112.1340
1015.000000	61.154	113.7988
1030.000000	61.315	115.3450
1044.000000	61.471	116.7153
1060.000000	61.646	118.2103
1075.000000	61.805	119.5155
1090.000000	61.961	120.7041
1106.000000	62.126	121.8526
1120.000000	62.269	122.7824
1138.000000	62.453	123.8871
1150.000000	62.574	124.5818
1172.000000	62.787	125.8196
1180.000000	62.861	126.2584
1206.000000	63.095	127.6429
1220.000000	63.221	128.3645
1241.000000	63.414	129.3865
1250.000000	63.500	129.8085
1265.000000	63.648	130.5137
1280.000000	63.800	131.2283
1315.000000	64.125	132.8422
1320.000000	64.163	133.0599
1340.000000	64.280	133.9115
1360.000000	64.340	134.7720
1380.000000	64.360	135.6557
1400.000000	64.364	136.5466
1430.000000	64.389	137.9112
1450.000000	64.438	138.8624
1475.000000	64.531	140.0678
1500.000000	64.652	141.2297
1525.000000	64.797	142.3801
1550.000000	64.960	143.5397
1575.000000	65.128	144.6870
1600.000000	65.289	145.8024
1625.000000	65.447	146.9046
1650.000000	65.603	148.0017
1675.000000	65.762	149.0434
1700.000000	65.920	150.0163
1725.000000	66.078	150.9577
1750.000000	66.241	151.8532
1775.000000	66.410	152.6785
1800.000000	66.585	153.4441
1825.000000	66.764	154.1793
1850.000000	66.940	154.8873
1875.000000	67.113	155.5525
1900.000000	67.285	156.1528
1925.000000	67.453	156.6823
1950.000000	67.620	157.1371
1975.000000	67.784	157.4943
2000.000000	67.944	157.7559
2030.000000	68.124	157.9934
2060.000000	68.296	158.1737
2090.000000	68.460	158.2829
2120.000000	68.618	158.3411
2140.000000	68.721	158.3680
2180.000000	68.921	158.3631
2200.000000	69.017	158.3118
2240.000000	69.195	158.1104
2270.000000	69.319	157.8744
2300.000000	69.435	157.5913
2330.000000	69.543	157.2841
2360.000000	69.643	156.9441
2400.000000	69.768	156.4328
2430.000000	69.854	156.0182
2470.000000	69.953	155.4211
2500.000000	70.016	154.9392
2540.000000	70.086	154.2618
2580.000000	70.142	153.5491
2620.000000	70.184	152.8018
2650.000000	70.207	152.2235
2690.000000	70.221	151.4307
2720.000000	70.221	150.8108
2760.000000	70.211	149.9327
2800.000000	70.191	148.9904
2850.000000	70.150	147.7734
2900.000000	70.089	146.5241
2950.000000	70.010	145.2020
3000.000000	69.904	143.7919
3040.000000	69.791	142.5970
3070.000000	69.689	141.6756
3110.000000	69.530	140.4305
3150.000000	69.349	139.1733
3200.000000	69.088	137.6249
3250.000000	68.776	136.1571
3300.000000	68.407	134.8140
3350.000000	67.983	133.6879
3400.000000	67.510	132.8696
3450.000000	66.993	132.4207
3500.000000	66.443	132.3879
3550.000000	65.874	132.7990
3600.000000	65.300	133.6610
3650.000000	64.735	134.9613
3700.000000	64.197	136.6838
3750.000000	63.700	138.7901
3820.000000	63.093	142.2466
3870.000000	62.725	144.9983
3950.000000	62.244	149.7659
4000.000000	62.004	152.9100
4060.000000	61.773	156.7693
4120.000000	61.598	160.6062
4180.000000	61.471	164.3041
4250.000000	61.380	168.3448
4310.000000	61.353	171.5189
4370.000000	61.368	174.3936
4440.000000	61.430	177.3316
4500.000000	61.517	179.4759
4550.000000	61.605	-178.9985
4620.000000	61.736	-177.2376
4680.000000	61.839	-176.0391
4750.000000	61.931	-174.9410
4820.000000	61.983	-174.0840
4870.000000	61.996	-173.5663
4940.000000	61.978	-172.9017
5000.000000	61.929	-172.3371
5080.000000	61.816	-171.5303
5150.000000	61.685	-170.7188
5220.000000	61.533	-169.7687
5300.000000	61.342	-168.5157
5380.000000	61.137	-167.1178
5450.000000	60.951	-165.7883
5520.000000	60.769	-164.3546
5600.000000	60.571	-162.5921
5700.000000	60.348	-160.2544
5800.000000	60.152	-157.8210
5900.000000	59.983	-155.2996
6000.000000	59.835	-152.6804
6080.000000	59.729	-150.5103
6150.000000	59.641	-148.5591
6220.000000	59.558	-146.5667
6300.000000	59.467	-144.2438
6400.000000	59.367	-141.2550
6500.000000	59.289	-138.1437
6600.000000	59.241	-134.9015
6700.000000	59.235	-131.5436
6800.000000	59.283	-128.0891
6900.000000	59.391	-124.5733
7000.000000	59.566	-121.0288
7100.000000	59.820	-117.4903
7200.000000	60.168	-114.0362
7300.000000	60.618	-110.7619
7400.000000	61.177	-107.7422
7500.000000	61.852	-105.0528
7620.000000	62.811	-102.4800
7750.000000	63.980	-100.9135
7880.000000	65.196	-101.1407
8000.000000	66.278	-103.3759
8120.000000	67.230	-107.8023
8250.000000	67.984	-114.9339
8380.000000	68.327	-123.7397
8500.000000	68.224	-132.2387
8620.000000	67.749	-139.9721
8750.000000	66.930	-146.5570
8850.000000	66.182	-150.0692
9000.000000	65.031	-152.8948
9120.000000	64.178	-153.4377
9250.000000	63.373	-152.8496
9380.000000	62.717	-151.5381
9500.000000	62.249	-150.0530
9620.000000	61.903	-148.5400
9750.000000	61.637	-147.0292
9880.000000	61.449	-145.7318
10000.000000	61.318	-144.7220
10150.000000	61.186	-143.6403
10300.000000	61.075	-142.6376
10440.000000	60.989	-141.6907
10600.000000	60.928	-140.5873
10750.000000	60.922	-139.5978
10900.000000	60.971	-138.7588
11060.000000	61.071	-138.1205
11200.000000	61.183	-137.7749
11380.000000	61.340	-137.4966
11500.000000	61.452	-137.3201
11720.000000	61.689	-136.8505
11800.000000	61.796	-136.6128
12060.000000	62.283	-135.5611
12200.000000	62.671	-134.8574
12410.000000	63.483	-133.8698
12500.000000	63.931	-133.6069
12650.000000	64.825	-133.6490
12800.000000	65.908	-134.6368
13150.000000	69.070	-143.3676
13200.000000	69.565	-145.6400
13400.000000	71.494	-157.9372
13600.000000	72.995	-175.5455
13800.000000	73.572	162.7842
14000.000000	72.923	140.5132
14300.000000	70.003	114.1292
14500.000000	67.368	103.3432
14750.000000	64.023	96.7476
15000.000000	61.175	95.4645
15250.000000	59.079	96.8510
15500.000000	57.666	98.9568
15750.000000	56.814	100.4734
16000.000000	56.516	100.3727
16250.000000	56.744	97.6953
16500.000000	57.286	91.6797
16750.000000	57.795	82.1135
17000.000000	57.929	69.7536
17250.000000	57.470	56.2625
17500.000000	56.397	43.5641
17750.000000	54.864	33.1145
18000.000000	53.100	25.5473
18250.000000	51.338	20.7848
18500.000000	49.752	18.3548
18750.000000	48.439	17.6321
19000.000000	47.432	17.9753
19250.000000	46.717	18.8148
19500.000000	46.250	19.6965
19750.000000	45.983	20.3131
20000.000000	45.874	20.5732
