* Measurement data measured by REW V5.30.9
* Source: Microphone (4- USB Audio Device), no input selected, R, volume: 0.250
* Format: 256k Log Swept Sine, 1 sweep at -12.0 dBFS with no timing reference
* Dated: 14-Mar-2024 14:30:52
* REW Settings:
*  C-weighting compensation: Off
*  Target level: 75.0 dB
* Note: 
* Measurement: Rose Technics Earfree I3 L
* Smoothing: 1/12 octave
* Frequency Step: 1/48 octave
* Start Frequency: 20.300 Hz
*
* Freq(Hz)	SPL(dB)	Phase(degrees)
20.299999	76.776	69.3089
20.600000	76.791	68.6714
20.900000	76.817	67.9059
21.200001	76.852	67.1566
21.400000	76.879	66.7046
21.799999	76.936	65.9627
22.000000	76.963	65.6787
22.400000	77.010	65.2646
22.700001	77.037	65.0504
23.000000	77.056	64.8736
23.299999	77.066	64.6960
23.600000	77.068	64.4903
24.000000	77.063	64.1534
24.299999	77.058	63.8587
24.700001	77.056	63.4351
25.000000	77.062	63.1138
25.400000	77.083	62.7043
25.799999	77.113	62.3335
26.200001	77.146	62.0115
26.500000	77.168	61.8027
26.900000	77.193	61.5607
27.200001	77.207	61.3967
27.600000	77.223	61.1834
28.000000	77.237	60.9616
28.500000	77.256	60.6694
29.000000	77.280	60.3829
29.500000	77.311	60.1281
30.000000	77.346	59.9088
30.400000	77.375	59.7491
30.700001	77.395	59.6324
31.100000	77.420	59.4770
31.500000	77.444	59.3203
32.000000	77.475	59.1239
32.500000	77.510	58.9319
33.000000	77.549	58.7536
33.500000	77.591	58.5973
34.000000	77.635	58.4604
34.500000	77.677	58.3263
35.000000	77.715	58.1758
35.500000	77.748	58.0008
36.000000	77.776	57.8074
36.500000	77.801	57.6057
37.000000	77.826	57.4012
37.500000	77.853	57.1961
38.200001	77.894	56.9200
38.700001	77.925	56.7459
39.500000	77.979	56.5149
40.000000	78.013	56.3837
40.599998	78.052	56.2177
41.200001	78.089	56.0359
41.799999	78.124	55.8427
42.500000	78.162	55.6176
43.099998	78.192	55.4438
43.700001	78.219	55.2965
44.400002	78.246	55.1361
45.000000	78.266	54.9801
45.500000	78.278	54.8347
46.200001	78.293	54.6315
46.799999	78.307	54.4749
47.500000	78.328	54.3096
48.200001	78.351	54.1430
48.700001	78.366	54.0134
49.400002	78.381	53.8200
50.000000	78.388	53.6623
50.799999	78.394	53.4912
51.500000	78.399	53.3711
52.200001	78.403	53.2595
53.000000	78.406	53.1304
53.799999	78.408	52.9861
54.500000	78.408	52.8467
55.200001	78.404	52.7170
56.000000	78.395	52.6001
57.000000	78.383	52.4833
58.000000	78.376	52.3760
59.000000	78.373	52.2871
60.000000	78.367	52.2273
60.799999	78.356	52.1941
61.500000	78.345	52.1609
62.200001	78.333	52.1150
63.000000	78.319	52.0511
64.000000	78.298	51.9785
65.000000	78.271	51.9326
66.000000	78.237	51.9094
67.000000	78.200	51.9040
68.000000	78.161	51.9153
69.000000	78.125	51.9300
70.000000	78.094	51.9419
71.000000	78.068	51.9731
72.000000	78.045	52.0541
73.000000	78.021	52.1916
74.000000	77.993	52.3736
75.000000	77.958	52.5859
76.199997	77.913	52.8593
77.500000	77.869	53.1486
78.800003	77.828	53.4003
80.000000	77.788	53.6133
81.199997	77.746	53.8395
82.500000	77.702	54.1144
83.800003	77.657	54.4187
85.000000	77.614	54.7226
86.199997	77.571	55.0624
87.500000	77.526	55.4859
88.500000	77.498	55.8392
90.000000	77.461	56.3799
91.199997	77.432	56.8146
92.500000	77.399	57.2902
93.800003	77.366	57.7518
95.000000	77.332	58.1549
96.199997	77.293	58.5544
97.500000	77.243	59.0036
98.800003	77.192	59.4647
100.000000	77.151	59.8905
101.500000	77.110	60.4342
103.000000	77.072	61.0049
104.400002	77.035	61.5615
106.000000	76.988	62.2138
107.500000	76.945	62.8407
109.000000	76.904	63.4695
110.599998	76.865	64.1300
112.000000	76.834	64.7121
113.800003	76.792	65.4838
115.000000	76.763	66.0010
117.199997	76.709	66.9249
118.000000	76.691	67.2543
120.599998	76.638	68.3187
122.000000	76.609	68.9013
124.099998	76.561	69.7940
125.000000	76.540	70.1818
126.500000	76.503	70.8259
128.000000	76.468	71.4620
131.500000	76.402	72.9386
132.000000	76.392	73.1499
134.000000	76.350	73.9827
136.000000	76.307	74.7958
138.000000	76.263	75.6222
140.000000	76.218	76.4662
143.000000	76.146	77.7333
145.000000	76.095	78.6005
147.500000	76.035	79.7229
150.000000	75.986	80.8715
152.500000	75.936	81.9844
155.000000	75.880	83.0412
157.500000	75.822	84.0963
160.000000	75.764	85.1980
162.500000	75.711	86.3288
165.000000	75.659	87.4547
167.500000	75.600	88.5887
170.000000	75.537	89.7556
172.500000	75.476	90.9337
175.000000	75.418	92.1159
177.500000	75.361	93.3118
180.000000	75.300	94.5115
182.500000	75.235	95.7084
185.000000	75.168	96.9158
187.500000	75.100	98.1367
190.000000	75.034	99.3532
192.500000	74.967	100.5792
195.000000	74.901	101.8519
197.500000	74.840	103.1853
200.000000	74.782	104.5664
203.000000	74.714	106.2309
206.000000	74.648	107.8555
209.000000	74.585	109.4521
212.000000	74.525	111.0467
214.000000	74.485	112.1152
218.000000	74.407	114.2802
220.000000	74.369	115.3879
224.000000	74.294	117.6623
227.000000	74.237	119.4260
230.000000	74.186	121.2333
233.000000	74.147	123.0734
236.000000	74.124	124.9272
240.000000	74.112	127.3314
243.000000	74.111	129.0288
247.000000	74.112	131.1936
250.000000	74.108	132.7899
254.000000	74.097	134.9354
258.000000	74.082	137.1164
262.000000	74.070	139.3017
265.000000	74.062	140.9239
269.000000	74.056	143.0611
272.000000	74.056	144.6495
276.000000	74.063	146.7598
280.000000	74.076	148.8706
285.000000	74.098	151.5148
290.000000	74.120	154.1524
295.000000	74.145	156.7542
300.000000	74.175	159.2782
304.000000	74.204	161.2413
307.000000	74.229	162.6910
311.000000	74.266	164.5890
315.000000	74.308	166.4403
320.000000	74.366	168.7057
325.000000	74.431	170.9395
330.000000	74.506	173.1268
335.000000	74.586	175.2562
340.000000	74.666	177.3492
345.000000	74.743	179.4177
350.000000	74.821	-178.5612
355.000000	74.901	-176.5830
360.000000	74.986	-174.6309
365.000000	75.077	-172.7279
370.000000	75.173	-170.9096
375.000000	75.273	-169.1906
382.000000	75.417	-166.9126
387.000000	75.518	-165.3354
395.000000	75.666	-162.8953
400.000000	75.742	-161.4152
406.000000	75.818	-159.6505
412.000000	75.885	-157.8909
418.000000	75.950	-156.1669
425.000000	76.034	-154.2352
431.000000	76.112	-152.6837
437.000000	76.184	-151.2405
444.000000	76.251	-149.6458
450.000000	76.289	-148.2916
455.000000	76.310	-147.1420
462.000000	76.328	-145.4833
468.000000	76.341	-144.0252
475.000000	76.357	-142.2860
482.000000	76.372	-140.5268
487.000000	76.381	-139.2946
494.000000	76.389	-137.6246
500.000000	76.393	-136.2246
508.000000	76.389	-134.4065
515.000000	76.375	-132.8864
522.000000	76.356	-131.4016
530.000000	76.331	-129.6665
538.000000	76.302	-127.9018
545.000000	76.269	-126.3778
552.000000	76.226	-124.8741
560.000000	76.158	-123.1692
570.000000	76.050	-121.0234
580.000000	75.933	-118.8099
590.000000	75.815	-116.5204
600.000000	75.688	-114.1960
608.000000	75.581	-112.2989
615.000000	75.488	-110.5828
622.000000	75.395	-108.8097
630.000000	75.288	-106.7156
640.000000	75.150	-104.0063
650.000000	75.007	-101.2494
660.000000	74.859	-98.4733
670.000000	74.710	-95.6416
680.000000	74.570	-92.7296
690.000000	74.442	-89.7474
700.000000	74.322	-86.7072
710.000000	74.212	-83.6332
720.000000	74.115	-80.5612
730.000000	74.027	-77.5179
740.000000	73.940	-74.5192
750.000000	73.847	-71.5800
762.000000	73.729	-68.0710
775.000000	73.602	-64.2170
788.000000	73.484	-60.3692
800.000000	73.394	-56.8757
812.000000	73.317	-53.4060
825.000000	73.242	-49.6229
838.000000	73.178	-45.7573
850.000000	73.130	-42.0802
862.000000	73.092	-38.2742
875.000000	73.065	-34.0551
885.000000	73.051	-30.7878
900.000000	73.041	-25.8931
912.000000	73.040	-22.0398
925.000000	73.047	-17.9612
938.000000	73.063	-13.9690
950.000000	73.084	-10.3293
962.000000	73.111	-6.7148
975.000000	73.145	-2.8407
988.000000	73.187	0.9761
1000.000000	73.234	4.4496
1015.000000	73.303	8.7330
1030.000000	73.384	12.9420
1044.000000	73.467	16.7906
1060.000000	73.563	21.1158
1075.000000	73.649	25.1357
1090.000000	73.738	29.1133
1106.000000	73.838	33.2669
1120.000000	73.929	36.7952
1138.000000	74.043	41.1755
1150.000000	74.116	43.9978
1172.000000	74.247	48.9374
1180.000000	74.295	50.6721
1206.000000	74.449	56.2258
1220.000000	74.529	59.1974
1241.000000	74.645	63.6041
1250.000000	74.694	65.4701
1265.000000	74.778	68.5460
1280.000000	74.861	71.5697
1315.000000	75.046	78.3402
1320.000000	75.070	79.2657
1340.000000	75.159	82.8732
1360.000000	75.234	86.4035
1380.000000	75.308	89.9651
1400.000000	75.388	93.6272
1430.000000	75.514	99.2225
1450.000000	75.589	102.8893
1475.000000	75.664	107.3513
1500.000000	75.728	111.7252
1525.000000	75.793	116.1107
1550.000000	75.870	120.5679
1575.000000	75.961	124.9734
1600.000000	76.045	129.1535
1625.000000	76.122	132.9452
1650.000000	76.197	136.2625
1675.000000	76.266	139.1619
1700.000000	76.333	141.7545
1725.000000	76.401	144.1478
1750.000000	76.467	146.3848
1775.000000	76.529	148.5038
1800.000000	76.593	150.5886
1825.000000	76.669	152.7310
1850.000000	76.758	154.9755
1875.000000	76.857	157.3001
1900.000000	76.965	159.6462
1925.000000	77.083	161.9667
1950.000000	77.206	164.2667
1975.000000	77.332	166.5843
2000.000000	77.463	168.9349
2030.000000	77.632	171.7557
2060.000000	77.810	174.5428
2090.000000	77.999	177.2924
2120.000000	78.203	179.9955
2140.000000	78.343	-178.2355
2180.000000	78.617	-174.8593
2200.000000	78.751	-173.3150
2240.000000	79.011	-170.6635
2270.000000	79.197	-169.1037
2300.000000	79.371	-167.8794
2330.000000	79.528	-166.9813
2360.000000	79.664	-166.4169
2400.000000	79.814	-166.1105
2430.000000	79.906	-166.0801
2470.000000	79.999	-166.0716
2500.000000	80.043	-165.9716
2540.000000	80.070	-165.5537
2580.000000	80.068	-164.6895
2620.000000	80.043	-163.4426
2650.000000	80.007	-162.3857
2690.000000	79.939	-160.9605
2720.000000	79.880	-159.9077
2760.000000	79.799	-158.4936
2800.000000	79.716	-157.0231
2850.000000	79.608	-155.1353
2900.000000	79.497	-153.3372
2950.000000	79.395	-151.7357
3000.000000	79.289	-150.4897
3040.000000	79.189	-149.8401
3070.000000	79.106	-149.5311
3110.000000	78.984	-149.3063
3150.000000	78.837	-149.2880
3200.000000	78.602	-149.5142
3250.000000	78.307	-149.7974
3300.000000	77.958	-149.8777
3350.000000	77.574	-149.5847
3400.000000	77.184	-148.8994
3450.000000	76.800	-147.9870
3500.000000	76.434	-146.9902
3550.000000	76.100	-145.8495
3600.000000	75.817	-144.3897
3650.000000	75.593	-142.5264
3700.000000	75.429	-140.3350
3750.000000	75.321	-137.9844
3820.000000	75.253	-134.7736
3870.000000	75.255	-132.6628
3950.000000	75.349	-129.4848
4000.000000	75.461	-127.5547
4060.000000	75.634	-125.4763
4120.000000	75.828	-123.9517
4180.000000	76.035	-123.0942
4250.000000	76.289	-122.7747
4310.000000	76.512	-122.8389
4370.000000	76.731	-123.0175
4440.000000	76.968	-123.4036
4500.000000	77.149	-123.9969
4550.000000	77.287	-124.6552
4620.000000	77.470	-125.6450
4680.000000	77.621	-126.4304
4750.000000	77.787	-127.2352
4820.000000	77.944	-127.9049
4870.000000	78.052	-128.3286
4940.000000	78.194	-128.9743
5000.000000	78.300	-129.7263
5080.000000	78.403	-131.2647
5150.000000	78.445	-133.3147
5220.000000	78.428	-136.1820
5300.000000	78.317	-140.4288
5380.000000	78.097	-145.1472
5450.000000	77.816	-148.9327
5520.000000	77.465	-151.9131
5600.000000	76.988	-154.2883
5700.000000	76.298	-156.1343
5800.000000	75.543	-157.1334
5900.000000	74.781	-157.2889
6000.000000	74.061	-156.6008
6080.000000	73.533	-155.7418
6150.000000	73.113	-154.9594
6220.000000	72.741	-154.1956
6300.000000	72.382	-153.3282
6400.000000	72.031	-152.1733
6500.000000	71.794	-150.7773
6600.000000	71.673	-149.1311
6700.000000	71.658	-147.5349
6800.000000	71.743	-146.1402
6900.000000	71.938	-144.6494
7000.000000	72.248	-142.9504
7100.000000	72.668	-141.4146
7200.000000	73.193	-140.3636
7300.000000	73.819	-139.9508
7400.000000	74.537	-140.3673
7500.000000	75.332	-141.9698
7620.000000	76.346	-146.0210
7750.000000	77.439	-153.4508
7880.000000	78.401	-164.1750
8000.000000	79.035	-176.8568
8120.000000	79.330	168.7275
8250.000000	79.230	152.9644
8380.000000	78.730	138.4225
8500.000000	77.997	126.3787
8620.000000	77.109	115.7775
8750.000000	76.089	106.1692
8850.000000	75.321	100.2313
9000.000000	74.259	93.4783
9120.000000	73.497	89.3235
9250.000000	72.759	85.4375
9380.000000	72.105	81.6721
9500.000000	71.560	77.9485
9620.000000	71.059	73.8909
9750.000000	70.554	69.1615
9880.000000	70.078	64.1252
10000.000000	69.657	59.2150
10150.000000	69.149	52.8856
10300.000000	68.658	46.9504
10440.000000	68.212	42.5996
10600.000000	67.720	40.3818
10750.000000	67.299	42.8464
10900.000000	66.947	50.8108
11060.000000	66.644	64.2000
11200.000000	66.437	78.3411
11380.000000	66.265	97.8708
11500.000000	66.220	110.6812
11720.000000	66.302	131.2693
11800.000000	66.390	137.5585
12060.000000	66.942	155.0095
12200.000000	67.436	163.4053
12410.000000	68.476	174.9953
12500.000000	69.040	179.3717
12650.000000	70.129	-174.4868
12800.000000	71.375	-169.9789
13150.000000	74.399	-166.9579
13200.000000	74.773	-167.5499
13400.000000	75.916	-172.5067
13600.000000	76.311	179.6825
13800.000000	75.898	171.6710
14000.000000	74.844	165.6458
14300.000000	72.687	161.7334
14500.000000	71.230	161.7396
14750.000000	69.614	162.9843
15000.000000	68.267	164.8726
15250.000000	67.166	167.5146
15500.000000	66.280	170.7849
15750.000000	65.576	174.6357
16000.000000	65.009	179.2335
16250.000000	64.511	-175.3942
16500.000000	64.002	-169.9618
16750.000000	63.432	-165.1360
17000.000000	62.788	-160.8600
17250.000000	62.044	-157.1993
17500.000000	61.147	-154.3015
17750.000000	60.049	-151.6788
18000.000000	58.742	-148.2336
18250.000000	57.289	-143.2387
18500.000000	55.780	-136.7924
18750.000000	54.318	-129.5818
19000.000000	52.983	-122.4530
19250.000000	51.821	-115.9531
19500.000000	50.838	-110.4040
19750.000000	50.068	-106.0960
20000.000000	49.636	-103.5879
