* Measurement data measured by REW V5.31.3
* Source: Microphone (6- USB Sound Device        ), MICROPHONE (Master Volume), L, volume: 0.700
* Format: 256k Log Swept Sine, 1 sweep at -12.0 dBFS with no timing reference
* Dated: 23-May-2025 15:02:53
* REW Settings:
*  C-weighting compensation: Off
*  Target level: 75.0 dB
* Note: 
* Measurement: Rose Ceramics X Rock R
* Smoothing: 1/12 octave
* Frequency Step: 1/48 octave
* Start Frequency: 20.300 Hz
*
* Freq(Hz)	SPL(dB)	Phase(degrees)
20.299999	69.454	-23.2834
20.600000	69.425	-22.8420
20.900000	69.394	-22.2943
21.200001	69.367	-21.7318
21.400000	69.351	-21.3708
21.799999	69.323	-20.7007
22.000000	69.309	-20.3903
22.400000	69.284	-19.8097
22.700001	69.268	-19.4068
23.000000	69.256	-19.0375
23.299999	69.247	-18.7104
23.600000	69.241	-18.4303
24.000000	69.231	-18.1193
24.299999	69.223	-17.9128
24.700001	69.210	-17.6395
25.000000	69.204	-17.4252
25.400000	69.202	-17.1382
25.799999	69.208	-16.8846
26.200001	69.215	-16.6969
26.500000	69.216	-16.6015
26.900000	69.209	-16.5136
27.200001	69.198	-16.4575
27.600000	69.181	-16.3766
28.000000	69.167	-16.2906
28.500000	69.158	-16.2067
29.000000	69.156	-16.1770
29.500000	69.152	-16.1871
30.000000	69.141	-16.1937
30.400000	69.128	-16.1792
30.700001	69.117	-16.1609
31.100000	69.101	-16.1424
31.500000	69.084	-16.1469
32.000000	69.056	-16.1854
32.500000	69.022	-16.2212
33.000000	68.985	-16.2034
33.500000	68.955	-16.1292
34.000000	68.938	-16.0627
34.500000	68.928	-16.0795
35.000000	68.907	-16.1869
35.500000	68.866	-16.3049
36.000000	68.811	-16.3317
36.500000	68.757	-16.2292
37.000000	68.720	-16.0514
37.500000	68.698	-15.8928
38.200001	68.676	-15.8015
38.700001	68.651	-15.8033
39.500000	68.593	-15.7818
40.000000	68.554	-15.7056
40.599998	68.512	-15.5560
41.200001	68.481	-15.3802
41.799999	68.458	-15.2110
42.500000	68.434	-15.0271
43.099998	68.413	-14.8645
43.700001	68.392	-14.6899
44.400002	68.373	-14.4830
45.000000	68.361	-14.3215
45.500000	68.356	-14.2108
46.200001	68.352	-14.1028
46.799999	68.349	-14.0379
47.500000	68.343	-13.9468
48.200001	68.338	-13.8099
48.700001	68.335	-13.6940
49.400002	68.333	-13.5370
50.000000	68.329	-13.4300
50.799999	68.326	-13.3572
51.500000	68.325	-13.3652
52.200001	68.326	-13.4077
53.000000	68.324	-13.4500
53.799999	68.320	-13.4834
54.500000	68.314	-13.5284
55.200001	68.308	-13.5998
56.000000	68.302	-13.7081
57.000000	68.296	-13.8601
58.000000	68.291	-14.0237
59.000000	68.288	-14.2125
60.000000	68.283	-14.4094
60.799999	68.278	-14.5570
61.500000	68.273	-14.6858
62.200001	68.266	-14.8276
63.000000	68.256	-15.0111
64.000000	68.236	-15.2627
65.000000	68.211	-15.5315
66.000000	68.181	-15.7992
67.000000	68.149	-16.0303
68.000000	68.115	-16.2233
69.000000	68.081	-16.4139
70.000000	68.048	-16.6303
71.000000	68.017	-16.8691
72.000000	67.986	-17.1158
73.000000	67.953	-17.3749
74.000000	67.918	-17.6590
75.000000	67.880	-17.9495
76.199997	67.827	-18.2438
77.500000	67.759	-18.4660
78.800003	67.681	-18.6367
80.000000	67.607	-18.7967
81.199997	67.535	-18.9644
82.500000	67.465	-19.1421
83.800003	67.398	-19.2971
85.000000	67.333	-19.4204
86.199997	67.261	-19.5461
87.500000	67.177	-19.6847
88.500000	67.112	-19.7731
90.000000	67.018	-19.8604
91.199997	66.949	-19.9040
92.500000	66.879	-19.9475
93.800003	66.812	-19.9919
95.000000	66.750	-20.0221
96.199997	66.688	-20.0403
97.500000	66.621	-20.0512
98.800003	66.554	-20.0555
100.000000	66.492	-20.0612
101.500000	66.410	-20.0565
103.000000	66.327	-20.0181
104.400002	66.252	-19.9660
106.000000	66.169	-19.9235
107.500000	66.100	-19.9202
109.000000	66.041	-19.9497
110.599998	65.978	-19.9872
112.000000	65.917	-20.0059
113.800003	65.831	-20.0077
115.000000	65.773	-19.9991
117.199997	65.670	-19.9819
118.000000	65.633	-19.9761
120.599998	65.517	-19.9170
122.000000	65.455	-19.8516
124.099998	65.363	-19.7690
125.000000	65.323	-19.7500
126.500000	65.257	-19.7326
128.000000	65.189	-19.7175
131.500000	65.025	-19.6756
132.000000	65.000	-19.6655
134.000000	64.896	-19.6121
136.000000	64.789	-19.5426
138.000000	64.685	-19.4512
140.000000	64.581	-19.3440
143.000000	64.431	-19.2017
145.000000	64.334	-19.1373
147.500000	64.207	-19.0415
150.000000	64.078	-18.8621
152.500000	63.954	-18.6166
155.000000	63.828	-18.4005
157.500000	63.692	-18.2116
160.000000	63.548	-17.9882
162.500000	63.408	-17.7418
165.000000	63.275	-17.4583
167.500000	63.149	-17.1012
170.000000	63.026	-16.6772
172.500000	62.902	-16.2259
175.000000	62.777	-15.7766
177.500000	62.646	-15.3411
180.000000	62.505	-14.9082
182.500000	62.361	-14.4307
185.000000	62.216	-13.8782
187.500000	62.071	-13.2558
190.000000	61.925	-12.5998
192.500000	61.781	-11.9325
195.000000	61.643	-11.2794
197.500000	61.514	-10.6616
200.000000	61.393	-10.0517
203.000000	61.260	-9.2553
206.000000	61.139	-8.3627
209.000000	61.028	-7.3595
212.000000	60.924	-6.2025
214.000000	60.858	-5.3248
218.000000	60.752	-3.2689
220.000000	60.726	-2.1231
224.000000	60.751	0.0994
227.000000	60.823	1.3999
230.000000	60.910	2.2504
233.000000	60.983	2.7234
236.000000	61.026	2.9694
240.000000	61.026	3.1857
243.000000	60.992	3.3721
247.000000	60.920	3.7249
250.000000	60.855	4.0615
254.000000	60.769	4.5615
258.000000	60.686	5.1019
262.000000	60.608	5.7163
265.000000	60.553	6.2291
269.000000	60.481	6.9514
272.000000	60.427	7.5223
276.000000	60.356	8.3223
280.000000	60.286	9.1400
285.000000	60.203	10.1739
290.000000	60.125	11.1920
295.000000	60.049	12.1724
300.000000	59.977	13.1636
304.000000	59.920	13.9832
307.000000	59.876	14.6030
311.000000	59.817	15.4174
315.000000	59.763	16.2050
320.000000	59.703	17.1492
325.000000	59.649	18.0788
330.000000	59.598	19.0469
335.000000	59.554	20.0179
340.000000	59.514	20.9394
345.000000	59.473	21.8114
350.000000	59.427	22.6842
355.000000	59.375	23.6053
360.000000	59.323	24.5600
365.000000	59.278	25.5303
370.000000	59.240	26.4673
375.000000	59.206	27.3147
382.000000	59.156	28.3907
387.000000	59.114	29.1826
395.000000	59.051	30.6242
400.000000	59.015	31.5694
406.000000	58.970	32.6428
412.000000	58.920	33.6695
418.000000	58.870	34.7244
425.000000	58.817	36.0160
431.000000	58.772	37.1237
437.000000	58.724	38.2009
444.000000	58.671	39.4252
450.000000	58.637	40.4672
455.000000	58.617	41.3442
462.000000	58.595	42.5898
468.000000	58.575	43.6574
475.000000	58.555	44.8848
482.000000	58.536	46.1184
487.000000	58.518	47.0004
494.000000	58.489	48.1812
500.000000	58.466	49.1352
508.000000	58.441	50.3973
515.000000	58.419	51.5281
522.000000	58.398	52.6916
530.000000	58.377	54.0713
538.000000	58.357	55.4667
545.000000	58.338	56.6768
552.000000	58.319	57.8943
560.000000	58.299	59.3047
570.000000	58.282	61.0697
580.000000	58.284	62.8185
590.000000	58.297	64.5547
600.000000	58.312	66.2529
608.000000	58.323	67.5536
615.000000	58.329	68.6641
622.000000	58.332	69.7740
630.000000	58.335	71.0581
640.000000	58.347	72.6623
650.000000	58.370	74.2183
660.000000	58.398	75.7426
670.000000	58.426	77.3135
680.000000	58.453	78.9393
690.000000	58.483	80.5364
700.000000	58.517	82.0600
710.000000	58.555	83.5667
720.000000	58.597	85.0923
730.000000	58.643	86.6420
740.000000	58.693	88.2108
750.000000	58.744	89.7746
762.000000	58.805	91.6201
775.000000	58.876	93.5994
788.000000	58.963	95.5552
800.000000	59.049	97.3086
812.000000	59.138	99.0109
825.000000	59.245	100.8215
838.000000	59.363	102.5923
850.000000	59.475	104.2099
862.000000	59.590	105.8144
875.000000	59.719	107.4931
885.000000	59.824	108.7270
900.000000	59.982	110.5164
912.000000	60.107	111.9148
925.000000	60.239	113.3794
938.000000	60.372	114.7840
950.000000	60.499	116.0278
962.000000	60.629	117.2351
975.000000	60.770	118.5362
988.000000	60.915	119.8180
1000.000000	61.054	120.9312
1015.000000	61.231	122.2031
1030.000000	61.405	123.3893
1044.000000	61.562	124.4525
1060.000000	61.741	125.5919
1075.000000	61.909	126.5852
1090.000000	62.074	127.5156
1106.000000	62.246	128.4751
1120.000000	62.392	129.3069
1138.000000	62.575	130.3325
1150.000000	62.692	130.9669
1172.000000	62.899	132.0342
1180.000000	62.973	132.4042
1206.000000	63.225	133.5625
1220.000000	63.365	134.1876
1241.000000	63.580	135.1447
1250.000000	63.675	135.5458
1265.000000	63.838	136.1870
1280.000000	64.004	136.7989
1315.000000	64.368	138.1526
1320.000000	64.413	138.3400
1340.000000	64.558	139.0838
1360.000000	64.649	139.8119
1380.000000	64.701	140.5051
1400.000000	64.737	141.1806
1430.000000	64.810	142.2277
1450.000000	64.887	142.9386
1475.000000	65.009	143.8402
1500.000000	65.155	144.7521
1525.000000	65.320	145.6321
1550.000000	65.497	146.4636
1575.000000	65.672	147.2641
1600.000000	65.840	148.0303
1625.000000	66.004	148.7797
1650.000000	66.173	149.5151
1675.000000	66.349	150.2144
1700.000000	66.525	150.8674
1725.000000	66.698	151.4594
1750.000000	66.870	151.9954
1775.000000	67.038	152.5205
1800.000000	67.199	153.0262
1825.000000	67.355	153.4917
1850.000000	67.512	153.9050
1875.000000	67.669	154.2527
1900.000000	67.825	154.5305
1925.000000	67.981	154.7550
1950.000000	68.138	154.9469
1975.000000	68.293	155.1029
2000.000000	68.444	155.2092
2030.000000	68.617	155.2555
2060.000000	68.779	155.2328
2090.000000	68.936	155.1618
2120.000000	69.089	155.0314
2140.000000	69.185	154.8956
2180.000000	69.362	154.4767
2200.000000	69.445	154.2170
2240.000000	69.602	153.6232
2270.000000	69.710	153.1304
2300.000000	69.814	152.6295
2330.000000	69.912	152.1156
2360.000000	70.001	151.5579
2400.000000	70.099	150.7474
2430.000000	70.160	150.0862
2470.000000	70.224	149.1140
2500.000000	70.260	148.3248
2540.000000	70.289	147.2254
2580.000000	70.297	146.0964
2620.000000	70.285	144.9711
2650.000000	70.263	144.1295
2690.000000	70.217	142.9812
2720.000000	70.171	142.0981
2760.000000	70.095	140.9173
2800.000000	69.999	139.7616
2850.000000	69.846	138.3703
2900.000000	69.654	137.0339
2950.000000	69.440	135.7315
3000.000000	69.207	134.4507
3040.000000	68.997	133.4619
3070.000000	68.827	132.7596
3110.000000	68.587	131.8922
3150.000000	68.334	131.1140
3200.000000	67.995	130.2701
3250.000000	67.628	129.5829
3300.000000	67.235	129.0787
3350.000000	66.813	128.7870
3400.000000	66.365	128.7428
3450.000000	65.901	128.9799
3500.000000	65.425	129.5135
3550.000000	64.943	130.3426
3600.000000	64.465	131.4600
3650.000000	64.004	132.8536
3700.000000	63.571	134.5077
3750.000000	63.176	136.3968
3820.000000	62.692	139.3758
3870.000000	62.395	141.7029
3950.000000	61.999	145.6436
4000.000000	61.793	148.1567
4060.000000	61.584	151.1581
4120.000000	61.412	154.1009
4180.000000	61.272	156.9356
4250.000000	61.142	160.0319
4310.000000	61.053	162.4648
4370.000000	60.985	164.6554
4440.000000	60.929	166.8849
4500.000000	60.896	168.5384
4550.000000	60.873	169.7571
4620.000000	60.842	171.2606
4680.000000	60.808	172.4146
4750.000000	60.753	173.6638
4820.000000	60.671	174.8522
4870.000000	60.595	175.6911
4940.000000	60.468	176.8881
5000.000000	60.343	177.9556
5080.000000	60.160	179.4538
5150.000000	59.986	-179.1517
5220.000000	59.805	-177.6674
5300.000000	59.593	-175.8559
5380.000000	59.381	-173.9581
5450.000000	59.197	-172.2484
5520.000000	59.015	-170.4837
5600.000000	58.820	-168.4011
5700.000000	58.597	-165.7415
5800.000000	58.398	-163.0584
5900.000000	58.226	-160.3164
6000.000000	58.083	-157.4859
6080.000000	57.980	-155.1709
6150.000000	57.894	-153.1146
6220.000000	57.811	-151.0265
6300.000000	57.718	-148.5982
6400.000000	57.612	-145.4933
6500.000000	57.527	-142.2888
6600.000000	57.474	-138.9680
6700.000000	57.464	-135.5340
6800.000000	57.505	-131.9827
6900.000000	57.601	-128.3317
7000.000000	57.764	-124.6384
7100.000000	58.008	-120.9760
7200.000000	58.345	-117.4156
7300.000000	58.789	-114.0179
7400.000000	59.350	-110.8739
7500.000000	60.033	-108.1026
7620.000000	61.005	-105.5023
7750.000000	62.189	-104.0128
7880.000000	63.412	-104.4417
8000.000000	64.475	-106.9649
8120.000000	65.373	-111.6940
8250.000000	66.038	-119.0287
8380.000000	66.275	-127.7937
8500.000000	66.079	-136.0097
8620.000000	65.534	-143.2752
8750.000000	64.672	-149.2590
8850.000000	63.914	-152.3330
9000.000000	62.771	-154.6705
9120.000000	61.934	-155.0009
9250.000000	61.151	-154.3342
9380.000000	60.509	-153.0561
9500.000000	60.041	-151.6487
9620.000000	59.676	-150.2246
9750.000000	59.372	-148.8073
9880.000000	59.130	-147.5953
10000.000000	58.938	-146.6523
10150.000000	58.719	-145.6087
10300.000000	58.509	-144.5666
10440.000000	58.321	-143.4857
10600.000000	58.128	-142.0744
10750.000000	57.991	-140.6266
10900.000000	57.904	-139.1440
11060.000000	57.866	-137.5734
11200.000000	57.875	-136.1977
11380.000000	57.941	-134.3940
11500.000000	58.022	-133.1572
11720.000000	58.269	-130.8026
11800.000000	58.400	-129.9236
12060.000000	59.010	-127.0216
12200.000000	59.481	-125.5006
12410.000000	60.420	-123.5541
12500.000000	60.920	-122.9722
12650.000000	61.886	-122.5921
12800.000000	63.011	-123.2836
13150.000000	66.071	-131.6088
13200.000000	66.524	-133.8049
13400.000000	68.223	-145.5265
13600.000000	69.473	-161.8147
13800.000000	69.901	178.7710
14000.000000	69.304	159.1830
14300.000000	66.825	135.6431
14500.000000	64.642	125.5828
14750.000000	61.933	118.8163
15000.000000	59.670	116.5485
15250.000000	58.003	116.5642
15500.000000	56.852	117.1742
15750.000000	56.145	117.2465
16000.000000	55.904	115.8948
16250.000000	56.112	112.2245
16500.000000	56.579	105.5218
16750.000000	56.995	95.6519
17000.000000	57.052	83.3380
17250.000000	56.558	70.0988
17500.000000	55.496	57.6982
17750.000000	54.005	47.4590
18000.000000	52.303	39.9161
18250.000000	50.600	34.9789
18500.000000	49.048	32.2804
18750.000000	47.733	31.3325
19000.000000	46.696	31.5888
19250.000000	45.932	32.5170
19500.000000	45.407	33.6327
19750.000000	45.087	34.5428
20000.000000	44.947	35.0064
