* Measurement data measured by REW V5.31.3
* Source: Microphone (4- USB Audio Device), MICROPHONE (Master Volume), R, volume: 0.250
* Format: 256k Log Swept Sine, 1 sweep at -12.0 dBFS with no timing reference
* Dated: 10-Oct-2024 18:15:05
* REW Settings:
*  C-weighting compensation: Off
*  Target level: 75.0 dB
* Note: 
* Measurement: Samsun Galaxy Buds 3 L
* Smoothing: 1/12 octave
* Frequency Step: 1/48 octave
* Start Frequency: 20.300 Hz
*
* Freq(Hz)	SPL(dB)	Phase(degrees)
20.299999	61.147	-34.8033
20.600000	61.370	-35.6856
20.900000	61.659	-36.8108
21.200001	61.978	-37.9835
21.400000	62.198	-38.7383
21.799999	62.633	-40.0990
22.000000	62.844	-40.6785
22.400000	63.234	-41.5883
22.700001	63.494	-42.0246
23.000000	63.726	-42.2400
23.299999	63.938	-42.2528
23.600000	64.139	-42.1184
24.000000	64.411	-41.8749
24.299999	64.624	-41.7826
24.700001	64.913	-41.9285
25.000000	65.125	-42.2558
25.400000	65.387	-42.8796
25.799999	65.622	-43.5265
26.200001	65.839	-44.0211
26.500000	65.997	-44.2519
26.900000	66.205	-44.4045
27.200001	66.356	-44.4463
27.600000	66.543	-44.4519
28.000000	66.708	-44.4113
28.500000	66.893	-44.2852
29.000000	67.075	-44.1037
29.500000	67.266	-43.9362
30.000000	67.461	-43.8003
30.400000	67.612	-43.6738
30.700001	67.720	-43.5437
31.100000	67.860	-43.3142
31.500000	67.997	-43.0317
32.000000	68.163	-42.6283
32.500000	68.325	-42.1669
33.000000	68.489	-41.6285
33.500000	68.657	-41.0209
34.000000	68.826	-40.3774
34.500000	68.983	-39.7138
35.000000	69.119	-39.0117
35.500000	69.235	-38.2448
36.000000	69.342	-37.4024
36.500000	69.449	-36.4884
37.000000	69.565	-35.5166
37.500000	69.688	-34.5144
38.200001	69.862	-33.1323
38.700001	69.982	-32.2086
39.500000	70.172	-30.9515
40.000000	70.294	-30.3528
40.599998	70.433	-29.7393
41.200001	70.555	-28.9615
41.799999	70.668	-27.7283
42.500000	70.804	-25.6932
43.099998	70.918	-23.7226
43.700001	71.013	-21.8077
44.400002	71.097	-19.7785
45.000000	71.168	-18.2262
45.500000	71.241	-17.0444
46.200001	71.365	-15.4754
46.799999	71.482	-14.1030
47.500000	71.615	-12.3774
48.200001	71.733	-10.5303
48.700001	71.807	-9.1854
49.400002	71.901	-7.3377
50.000000	71.977	-5.8242
50.799999	72.074	-3.9115
51.500000	72.155	-2.2967
52.200001	72.227	-0.6859
53.000000	72.292	1.2052
53.799999	72.344	3.2059
54.500000	72.395	5.0534
55.200001	72.460	6.9250
56.000000	72.549	8.9969
57.000000	72.658	11.5015
58.000000	72.753	14.1239
59.000000	72.846	16.9556
60.000000	72.943	19.8302
60.799999	73.020	22.0843
61.500000	73.091	24.0382
62.200001	73.170	25.9808
63.000000	73.268	28.1541
64.000000	73.384	30.7309
65.000000	73.473	33.1889
66.000000	73.531	35.6859
67.000000	73.573	38.3727
68.000000	73.617	41.3046
69.000000	73.680	44.2999
70.000000	73.747	47.1631
71.000000	73.805	49.9760
72.000000	73.858	52.8130
73.000000	73.908	55.6403
74.000000	73.959	58.4684
75.000000	74.020	61.3330
76.199997	74.099	64.8157
77.500000	74.175	68.5463
78.800003	74.244	72.2383
80.000000	74.293	75.7382
81.199997	74.314	79.3869
82.500000	74.342	83.3214
83.800003	74.409	87.0937
85.000000	74.482	90.5483
86.199997	74.536	94.0714
87.500000	74.582	97.9178
88.500000	74.614	100.8773
90.000000	74.660	105.3233
91.199997	74.698	108.8848
92.500000	74.750	112.7901
93.800003	74.801	116.7413
95.000000	74.830	120.3642
96.199997	74.845	123.8998
97.500000	74.863	127.6183
98.800003	74.896	131.2839
100.000000	74.935	134.7069
101.500000	74.983	139.1431
103.000000	75.019	143.8024
104.400002	75.047	148.3074
106.000000	75.086	153.4478
107.500000	75.129	158.0999
109.000000	75.167	162.6152
110.599998	75.198	167.3833
112.000000	75.224	171.5268
113.800003	75.265	176.8543
115.000000	75.297	-179.5693
117.199997	75.355	-172.9389
118.000000	75.373	-170.5131
120.599998	75.427	-162.5924
122.000000	75.459	-158.3204
124.099998	75.504	-151.9843
125.000000	75.521	-149.2928
126.500000	75.547	-144.8135
128.000000	75.571	-140.3362
131.500000	75.627	-130.0203
132.000000	75.635	-128.5649
134.000000	75.667	-122.7486
136.000000	75.699	-116.8909
138.000000	75.727	-110.9875
140.000000	75.753	-105.0966
143.000000	75.784	-96.2590
145.000000	75.805	-90.3376
147.500000	75.835	-83.0222
150.000000	75.859	-75.7553
152.500000	75.885	-68.4575
155.000000	75.907	-61.2050
157.500000	75.922	-54.0204
160.000000	75.931	-46.8430
162.500000	75.934	-39.6451
165.000000	75.934	-32.4481
167.500000	75.927	-25.2662
170.000000	75.914	-18.0908
172.500000	75.904	-10.8865
175.000000	75.905	-3.6847
177.500000	75.908	3.4646
180.000000	75.899	10.5529
182.500000	75.870	17.6185
185.000000	75.826	24.7127
187.500000	75.774	31.8420
190.000000	75.722	38.9550
192.500000	75.679	45.9922
195.000000	75.644	52.9712
197.500000	75.610	59.9362
200.000000	75.571	66.9213
203.000000	75.518	75.3087
206.000000	75.465	83.6643
209.000000	75.416	92.0217
212.000000	75.364	100.4094
214.000000	75.329	106.0105
218.000000	75.261	117.2154
220.000000	75.230	122.8134
224.000000	75.180	134.0238
227.000000	75.148	142.5153
230.000000	75.117	151.1050
233.000000	75.085	159.7416
236.000000	75.057	168.3642
240.000000	75.027	179.8223
243.000000	75.006	-171.5785
247.000000	74.976	-160.0757
250.000000	74.960	-151.4479
254.000000	74.960	-139.9847
258.000000	74.969	-128.6010
262.000000	74.972	-117.2828
265.000000	74.974	-108.7964
269.000000	74.985	-97.5151
272.000000	74.995	-89.1134
276.000000	74.999	-77.9708
280.000000	74.996	-66.8329
285.000000	74.995	-52.9042
290.000000	75.000	-39.0234
295.000000	75.015	-25.2373
300.000000	75.040	-11.5561
304.000000	75.064	-0.6599
307.000000	75.083	7.4811
311.000000	75.107	18.2994
315.000000	75.128	29.0892
320.000000	75.148	42.5355
325.000000	75.171	55.9910
330.000000	75.207	69.4833
335.000000	75.260	83.0069
340.000000	75.331	96.5537
345.000000	75.422	110.0045
350.000000	75.520	123.2723
355.000000	75.618	136.3826
360.000000	75.718	149.3606
365.000000	75.820	162.2272
370.000000	75.925	174.9968
375.000000	76.029	-172.3652
382.000000	76.174	-154.9097
387.000000	76.277	-142.5701
395.000000	76.445	-122.9072
400.000000	76.554	-110.6691
406.000000	76.684	-96.0686
412.000000	76.809	-81.5735
418.000000	76.931	-67.2251
425.000000	77.071	-50.7253
431.000000	77.176	-36.7205
437.000000	77.261	-22.7998
444.000000	77.343	-6.6534
450.000000	77.411	7.1401
455.000000	77.474	18.5911
462.000000	77.562	34.4803
468.000000	77.627	47.9823
475.000000	77.690	63.6814
482.000000	77.741	79.3326
487.000000	77.774	90.4788
494.000000	77.820	106.0491
500.000000	77.865	119.3719
508.000000	77.933	137.1056
515.000000	77.989	152.5963
522.000000	78.033	168.0521
530.000000	78.077	-174.3857
538.000000	78.122	-156.9476
545.000000	78.163	-141.7581
552.000000	78.205	-126.6458
560.000000	78.251	-109.5024
570.000000	78.302	-88.1978
580.000000	78.350	-66.9789
590.000000	78.404	-45.9587
600.000000	78.462	-25.0681
608.000000	78.510	-8.4095
615.000000	78.551	6.0857
622.000000	78.591	20.4941
630.000000	78.638	36.8866
640.000000	78.696	57.2972
650.000000	78.753	77.5226
660.000000	78.813	97.4871
670.000000	78.878	117.2454
680.000000	78.939	136.8969
690.000000	78.991	156.3896
700.000000	79.033	175.7017
710.000000	79.067	-165.0703
720.000000	79.099	-145.8671
730.000000	79.138	-126.7433
740.000000	79.187	-107.7526
750.000000	79.249	-88.8824
762.000000	79.332	-66.3732
775.000000	79.421	-42.2339
788.000000	79.498	-18.4335
800.000000	79.547	3.3357
812.000000	79.569	25.0209
825.000000	79.570	48.4331
838.000000	79.558	71.7327
850.000000	79.539	93.1797
862.000000	79.515	114.6274
875.000000	79.487	137.8335
885.000000	79.464	155.6206
900.000000	79.420	-177.8174
912.000000	79.378	-156.6411
925.000000	79.337	-133.7285
938.000000	79.308	-110.8564
950.000000	79.290	-89.8320
962.000000	79.274	-68.9155
975.000000	79.256	-46.3630
988.000000	79.235	-23.9131
1000.000000	79.211	-3.3003
1015.000000	79.171	22.3005
1030.000000	79.126	47.7908
1044.000000	79.088	71.5886
1060.000000	79.056	98.8398
1075.000000	79.032	124.3679
1090.000000	79.009	149.7810
1106.000000	78.988	176.6528
1120.000000	78.969	-160.1035
1138.000000	78.931	-130.5471
1150.000000	78.901	-110.9722
1172.000000	78.857	-75.1294
1180.000000	78.851	-62.1169
1206.000000	78.862	-20.2388
1220.000000	78.876	1.9395
1241.000000	78.898	34.7551
1250.000000	78.908	48.7046
1265.000000	78.926	71.8535
1280.000000	78.945	94.8721
1315.000000	78.939	148.0088
1320.000000	78.927	155.5620
1340.000000	78.853	-174.2134
1360.000000	78.742	-143.8979
1380.000000	78.616	-113.5574
1400.000000	78.493	-83.4370
1430.000000	78.345	-38.8354
1450.000000	78.285	-9.3445
1475.000000	78.256	27.3782
1500.000000	78.265	63.9719
1525.000000	78.288	100.4143
1550.000000	78.322	136.7549
1575.000000	78.371	172.8369
1600.000000	78.429	-151.5652
1625.000000	78.491	-116.2639
1650.000000	78.581	-80.9958
1675.000000	78.705	-45.9824
1700.000000	78.841	-11.5237
1725.000000	78.975	22.2998
1750.000000	79.115	55.5835
1775.000000	79.266	88.4231
1800.000000	79.426	120.8621
1825.000000	79.592	152.9697
1850.000000	79.766	-175.2104
1875.000000	79.949	-143.7000
1900.000000	80.136	-112.5464
1925.000000	80.324	-81.7588
1950.000000	80.508	-51.2776
1975.000000	80.692	-21.0571
2000.000000	80.879	8.8950
2030.000000	81.103	44.3960
2060.000000	81.323	79.2793
2090.000000	81.539	113.4382
2120.000000	81.745	146.9287
2140.000000	81.877	168.9771
2180.000000	82.137	-147.4338
2200.000000	82.263	-125.8789
2240.000000	82.500	-83.3145
2270.000000	82.660	-51.8962
2300.000000	82.799	-20.8838
2330.000000	82.911	9.7783
2360.000000	82.989	40.1377
2400.000000	83.032	80.3081
2430.000000	83.021	110.4150
2470.000000	82.964	150.7651
2500.000000	82.900	-178.7729
2540.000000	82.796	-137.9941
2580.000000	82.682	-97.2886
2620.000000	82.568	-56.8960
2650.000000	82.484	-26.7393
2690.000000	82.381	13.9946
2720.000000	82.323	45.4316
2760.000000	82.273	88.5215
2800.000000	82.235	132.1572
2850.000000	82.181	-173.6953
2900.000000	82.118	-120.3623
2950.000000	82.052	-67.7705
3000.000000	81.985	-15.7910
3040.000000	81.933	25.4209
3070.000000	81.895	56.1465
3110.000000	81.841	97.0430
3150.000000	81.786	138.0679
3200.000000	81.724	-170.5684
3250.000000	81.664	-119.4678
3300.000000	81.602	-68.8926
3350.000000	81.532	-19.0947
3400.000000	81.453	29.8477
3450.000000	81.367	78.0771
3500.000000	81.272	125.6621
3550.000000	81.171	172.6621
3600.000000	81.066	-140.8223
3650.000000	80.967	-94.6113
3700.000000	80.878	-48.5605
3750.000000	80.801	-2.6782
3820.000000	80.708	61.3745
3870.000000	80.653	106.8667
3950.000000	80.555	178.4600
4000.000000	80.478	-137.4966
4060.000000	80.374	-85.0405
4120.000000	80.263	-32.8887
4180.000000	80.145	18.7510
4250.000000	79.986	78.2920
4310.000000	79.837	128.8335
4370.000000	79.680	178.5796
4440.000000	79.495	-124.4453
4500.000000	79.349	-76.1348
4550.000000	79.239	-36.1289
4620.000000	79.097	19.2266
4680.000000	78.981	65.5801
4750.000000	78.839	117.9946
4820.000000	78.689	168.9214
4870.000000	78.580	-155.2007
4940.000000	78.432	-105.3530
5000.000000	78.306	-63.0215
5080.000000	78.133	-7.0825
5150.000000	77.978	41.7441
5220.000000	77.828	90.8223
5300.000000	77.678	147.0151
5380.000000	77.546	-157.5947
5450.000000	77.435	-110.2456
5520.000000	77.334	-63.9727
5600.000000	77.248	-12.3701
5700.000000	77.206	50.8589
5800.000000	77.273	113.9111
5900.000000	77.461	177.2188
6000.000000	77.740	-119.5845
6080.000000	78.004	-69.7100
6150.000000	78.246	-26.9756
6220.000000	78.487	14.7852
6300.000000	78.750	61.3320
6400.000000	79.045	117.9971
6500.000000	79.290	173.5122
6600.000000	79.487	-131.6675
6700.000000	79.647	-77.5552
6800.000000	79.781	-24.4321
6900.000000	79.898	27.4697
7000.000000	80.010	78.0796
7100.000000	80.137	127.6626
7200.000000	80.301	176.5283
7300.000000	80.506	-135.4868
7400.000000	80.743	-88.8848
7500.000000	81.015	-43.9316
7620.000000	81.377	7.9780
7750.000000	81.766	62.2881
7880.000000	82.075	114.8574
8000.000000	82.237	161.5801
8120.000000	82.265	-153.2598
8250.000000	82.145	-105.2832
8380.000000	81.856	-57.7676
8500.000000	81.424	-14.1836
8620.000000	80.827	29.2363
8750.000000	79.993	76.0859
8850.000000	79.229	112.1191
9000.000000	77.950	166.6611
9120.000000	76.880	-149.2119
9250.000000	75.739	-101.3105
9380.000000	74.660	-53.9092
9500.000000	73.729	-11.4180
9620.000000	72.860	29.3047
9750.000000	71.995	71.6533
9880.000000	71.217	112.9385
10000.000000	70.584	150.7002
10150.000000	69.917	-162.5605
10300.000000	69.386	-117.2500
10440.000000	69.028	-76.7998
10600.000000	68.815	-32.5342
10750.000000	68.832	7.4121
10900.000000	69.066	46.2822
11060.000000	69.541	87.2002
11200.000000	70.123	122.2480
11380.000000	71.069	164.8975
11500.000000	71.811	-168.7100
11720.000000	73.348	-124.7979
11800.000000	73.936	-110.3945
12060.000000	75.790	-71.1533
12200.000000	76.689	-54.9316
12410.000000	77.812	-35.5312
12500.000000	78.185	-28.4844
12650.000000	78.639	-17.4932
12800.000000	78.875	-6.9326
13150.000000	78.625	13.0195
13200.000000	78.512	15.4531
13400.000000	77.928	24.6055
13600.000000	77.232	33.6914
13800.000000	76.549	42.0605
14000.000000	75.932	44.3896
14300.000000	75.072	46.8525
14500.000000	74.447	53.9121
14750.000000	73.511	62.9990
15000.000000	72.383	54.4111
15250.000000	71.087	35.2656
15500.000000	69.651	29.3398
15750.000000	68.154	26.5527
16000.000000	66.740	3.9238
16250.000000	65.550	-4.0615
16500.000000	64.634	-24.6816
16750.000000	63.997	-38.6201
17000.000000	63.661	-37.0547
17250.000000	63.592	-78.4590
17500.000000	63.648	-76.4102
17750.000000	63.630	-76.9814
18000.000000	63.373	161.8447
18250.000000	62.763	-169.0303
18500.000000	61.801	-156.9766
18750.000000	60.658	99.7021
19000.000000	59.632	66.3086
19250.000000	58.986	15.2461
19500.000000	58.765	91.4561
19750.000000	58.797	-152.9854
20000.000000	58.865	-55.7881
