* Measurement data measured by REW V5.31.1
* Source: Microphone (4- USB Audio Device), MICROPHONE (Master Volume), R, volume: 0.910
* Format: 256k Log Swept Sine, 1 sweep at -12.0 dBFS with no timing reference
* Dated: 03-Jun-2024 22:16:31
* REW Settings:
*  C-weighting compensation: Off
*  Target level: 75.0 dB
* Note: 
* Measurement: Shokz Openfit Air Bass R
* Smoothing: 1/12 octave
* Frequency Step: 1/48 octave
* Start Frequency: 20.300 Hz
*
* Freq(Hz)	SPL(dB)	Phase(degrees)
20.299999	49.172	153.0417
20.600000	50.286	153.4508
20.900000	51.589	153.0482
21.200001	52.805	151.7567
21.400000	53.492	150.5926
21.799999	54.497	148.2145
22.000000	54.821	147.2703
22.400000	55.202	146.2850
22.700001	55.382	146.3054
23.000000	55.604	146.5288
23.299999	55.948	146.2789
23.600000	56.424	144.9869
24.000000	57.181	141.4981
24.299999	57.764	138.0882
24.700001	58.497	133.7084
25.000000	59.010	131.2400
25.400000	59.681	129.4687
25.799999	60.379	129.0962
26.200001	61.101	129.1974
26.500000	61.633	129.0211
26.900000	62.294	128.0214
27.200001	62.747	126.6349
27.600000	63.315	124.0614
28.000000	63.875	120.9308
28.500000	64.598	116.7595
29.000000	65.335	112.8678
29.500000	66.045	109.6127
30.000000	66.704	106.9689
30.400000	67.191	105.0871
30.700001	67.531	103.6913
31.100000	67.952	101.7764
31.500000	68.342	99.8212
32.000000	68.812	97.4757
32.500000	69.302	95.3675
33.000000	69.829	93.4123
33.500000	70.370	91.3840
34.000000	70.874	89.1632
34.500000	71.313	86.8461
35.000000	71.690	84.6328
35.500000	72.037	82.6406
36.000000	72.378	80.8097
36.500000	72.718	78.9631
37.000000	73.049	76.9444
37.500000	73.364	74.7143
38.200001	73.787	71.4004
38.700001	74.089	69.0692
39.500000	74.551	65.5775
40.000000	74.798	63.5253
40.599998	75.041	61.1484
41.200001	75.263	58.7979
41.799999	75.527	56.2702
42.500000	75.895	52.7370
43.099998	76.193	49.1810
43.700001	76.435	45.4311
44.400002	76.702	41.1688
45.000000	76.973	37.7186
45.500000	77.218	35.0530
46.200001	77.522	31.7478
46.799999	77.694	29.0450
47.500000	77.733	25.1734
48.200001	77.574	20.0751
48.700001	77.428	16.1616
49.400002	77.447	11.4979
50.000000	77.815	8.6730
50.799999	78.546	5.7596
51.500000	79.055	3.3264
52.200001	79.350	0.7836
53.000000	79.550	-2.5350
53.799999	79.718	-6.3125
54.500000	79.867	-9.6184
55.200001	80.016	-12.6853
56.000000	80.170	-15.9603
57.000000	80.342	-19.8686
58.000000	80.519	-23.6077
59.000000	80.687	-27.1633
60.000000	80.839	-30.4692
60.799999	80.961	-32.9558
61.500000	81.065	-35.0503
62.200001	81.162	-37.0604
63.000000	81.265	-39.2369
64.000000	81.391	-41.8103
65.000000	81.513	-44.2910
66.000000	81.635	-46.7280
67.000000	81.763	-49.1242
68.000000	81.892	-51.4018
69.000000	82.024	-53.5364
70.000000	82.170	-55.6552
71.000000	82.328	-57.8327
72.000000	82.482	-59.9699
73.000000	82.622	-61.9544
74.000000	82.753	-63.7834
75.000000	82.887	-65.5203
76.199997	83.055	-67.5523
77.500000	83.238	-69.7490
78.800003	83.420	-72.0097
80.000000	83.590	-74.1422
81.199997	83.758	-76.2103
82.500000	83.933	-78.3231
83.800003	84.100	-80.3779
85.000000	84.252	-82.2945
86.199997	84.405	-84.2252
87.500000	84.560	-86.3107
88.500000	84.670	-87.8955
90.000000	84.829	-90.2242
91.199997	84.958	-92.0798
92.500000	85.092	-94.1173
93.800003	85.217	-96.1804
95.000000	85.324	-98.1148
96.199997	85.423	-100.0547
97.500000	85.516	-102.0940
98.800003	85.595	-104.0541
100.000000	85.658	-105.8294
101.500000	85.734	-108.0195
103.000000	85.812	-110.1223
104.400002	85.894	-111.9564
106.000000	85.989	-113.9066
107.500000	86.066	-115.6545
109.000000	86.123	-117.3621
110.599998	86.174	-119.1701
112.000000	86.218	-120.7481
113.800003	86.276	-122.7438
115.000000	86.311	-124.0279
117.199997	86.360	-126.2279
118.000000	86.375	-126.9790
120.599998	86.432	-129.2794
122.000000	86.466	-130.4055
124.099998	86.509	-131.9824
125.000000	86.525	-132.6472
126.500000	86.555	-133.7551
128.000000	86.588	-134.8464
131.500000	86.659	-137.3139
132.000000	86.668	-137.6625
134.000000	86.700	-139.0308
136.000000	86.730	-140.3641
138.000000	86.762	-141.6786
140.000000	86.798	-142.9682
143.000000	86.857	-144.8076
145.000000	86.893	-145.9828
147.500000	86.929	-147.4338
150.000000	86.956	-148.8707
152.500000	86.971	-150.2754
155.000000	86.980	-151.6010
157.500000	86.984	-152.8404
160.000000	86.988	-154.0330
162.500000	86.993	-155.1730
165.000000	87.000	-156.2415
167.500000	87.015	-157.2491
170.000000	87.036	-158.1981
172.500000	87.053	-159.0473
175.000000	87.068	-159.8178
177.500000	87.088	-160.5659
180.000000	87.122	-161.3006
182.500000	87.162	-162.0105
185.000000	87.207	-162.6883
187.500000	87.261	-163.3303
190.000000	87.328	-163.9369
192.500000	87.401	-164.5226
195.000000	87.471	-165.0949
197.500000	87.542	-165.6566
200.000000	87.620	-166.2292
203.000000	87.727	-166.9361
206.000000	87.846	-167.6351
209.000000	87.964	-168.3189
212.000000	88.078	-168.9850
214.000000	88.154	-169.4116
218.000000	88.305	-170.2369
220.000000	88.383	-170.6593
224.000000	88.542	-171.5457
227.000000	88.662	-172.2265
230.000000	88.789	-172.9154
233.000000	88.922	-173.6375
236.000000	89.061	-174.4105
240.000000	89.250	-175.4537
243.000000	89.390	-176.2020
247.000000	89.571	-177.1888
250.000000	89.702	-177.9672
254.000000	89.875	-179.0914
258.000000	90.048	179.6871
262.000000	90.221	178.4063
265.000000	90.347	177.4125
269.000000	90.511	176.0384
272.000000	90.632	174.9562
276.000000	90.792	173.4102
280.000000	90.947	171.7488
285.000000	91.124	169.5312
290.000000	91.279	167.1749
295.000000	91.408	164.7245
300.000000	91.504	162.2230
304.000000	91.556	160.2395
307.000000	91.582	158.7909
311.000000	91.603	156.9325
315.000000	91.606	155.1606
320.000000	91.586	153.0463
325.000000	91.549	151.0119
330.000000	91.500	149.0660
335.000000	91.443	147.2343
340.000000	91.381	145.5125
345.000000	91.318	143.8590
350.000000	91.256	142.2543
355.000000	91.191	140.7245
360.000000	91.117	139.3163
365.000000	91.034	138.0271
370.000000	90.948	136.8388
375.000000	90.862	135.7491
382.000000	90.745	134.3667
387.000000	90.664	133.4416
395.000000	90.531	131.9775
400.000000	90.441	131.0630
406.000000	90.328	129.9899
412.000000	90.205	128.9647
418.000000	90.070	127.9741
425.000000	89.906	126.8291
431.000000	89.764	125.8522
437.000000	89.618	124.9299
444.000000	89.442	123.9918
450.000000	89.285	123.3440
455.000000	89.153	122.9361
462.000000	88.970	122.5498
468.000000	88.823	122.3271
475.000000	88.668	122.1693
482.000000	88.536	122.1854
487.000000	88.455	122.3173
494.000000	88.361	122.6146
500.000000	88.293	122.9131
508.000000	88.219	123.3159
515.000000	88.167	123.6694
522.000000	88.120	124.0232
530.000000	88.070	124.3969
538.000000	88.024	124.7136
545.000000	87.987	124.9770
552.000000	87.951	125.2706
560.000000	87.915	125.6494
570.000000	87.876	126.1537
580.000000	87.843	126.7015
590.000000	87.818	127.2826
600.000000	87.807	127.8744
608.000000	87.806	128.3628
615.000000	87.807	128.7998
622.000000	87.812	129.2392
630.000000	87.825	129.7308
640.000000	87.853	130.3333
650.000000	87.891	130.9231
660.000000	87.940	131.4571
670.000000	87.997	131.9201
680.000000	88.053	132.3533
690.000000	88.108	132.8198
700.000000	88.164	133.3101
710.000000	88.222	133.7976
720.000000	88.281	134.2627
730.000000	88.343	134.6900
740.000000	88.408	135.0811
750.000000	88.474	135.4385
762.000000	88.557	135.8032
775.000000	88.648	136.0929
788.000000	88.731	136.3116
800.000000	88.794	136.4838
812.000000	88.845	136.6121
825.000000	88.884	136.6980
838.000000	88.899	136.7175
850.000000	88.896	136.6685
862.000000	88.884	136.5944
875.000000	88.864	136.5306
885.000000	88.840	136.5262
900.000000	88.790	136.6889
912.000000	88.744	137.0218
925.000000	88.694	137.6104
938.000000	88.652	138.4228
950.000000	88.626	139.3331
962.000000	88.613	140.3515
975.000000	88.616	141.5040
988.000000	88.633	142.6216
1000.000000	88.659	143.5737
1015.000000	88.705	144.6457
1030.000000	88.765	145.5907
1044.000000	88.833	146.3565
1060.000000	88.926	147.0886
1075.000000	89.021	147.6468
1090.000000	89.118	148.0866
1106.000000	89.218	148.4319
1120.000000	89.304	148.6919
1138.000000	89.419	149.0184
1150.000000	89.496	149.2219
1172.000000	89.623	149.5435
1180.000000	89.663	149.6389
1206.000000	89.777	149.9224
1220.000000	89.833	150.0887
1241.000000	89.911	150.3171
1250.000000	89.942	150.3915
1265.000000	89.989	150.4790
1280.000000	90.029	150.5302
1315.000000	90.112	150.6514
1320.000000	90.124	150.6742
1340.000000	90.172	150.7678
1360.000000	90.213	150.8969
1380.000000	90.247	151.1603
1400.000000	90.285	151.6792
1430.000000	90.356	152.9932
1450.000000	90.409	154.0819
1475.000000	90.482	155.4777
1500.000000	90.562	156.7965
1525.000000	90.655	157.9391
1550.000000	90.766	158.8650
1575.000000	90.888	159.6239
1600.000000	91.017	160.3495
1625.000000	91.153	161.1708
1650.000000	91.300	162.1076
1675.000000	91.462	163.1619
1700.000000	91.640	164.2920
1725.000000	91.824	165.4167
1750.000000	92.006	166.4997
1775.000000	92.188	167.5500
1800.000000	92.376	168.5862
1825.000000	92.579	169.6132
1850.000000	92.795	170.6069
1875.000000	93.020	171.5344
1900.000000	93.251	172.4008
1925.000000	93.489	173.2344
1950.000000	93.737	174.0594
1975.000000	93.998	174.9031
2000.000000	94.278	175.7513
2030.000000	94.633	176.6036
2060.000000	94.983	177.0453
2090.000000	95.305	177.0826
2120.000000	95.608	176.9110
2140.000000	95.807	176.7648
2180.000000	96.205	176.4834
2200.000000	96.401	176.3408
2240.000000	96.785	175.8650
2270.000000	97.052	175.1228
2300.000000	97.280	174.0584
2330.000000	97.464	172.8814
2360.000000	97.610	171.7390
2400.000000	97.744	170.2394
2430.000000	97.793	169.0507
2470.000000	97.800	167.3343
2500.000000	97.767	165.9588
2540.000000	97.677	164.0159
2580.000000	97.546	161.9883
2620.000000	97.389	160.0578
2650.000000	97.255	158.7932
2690.000000	97.055	157.4168
2720.000000	96.893	156.6301
2760.000000	96.667	155.8681
2800.000000	96.425	155.3126
2850.000000	96.089	154.8245
2900.000000	95.706	154.5023
2950.000000	95.248	154.3713
3000.000000	94.681	154.7657
3040.000000	94.168	156.0150
3070.000000	93.797	157.7097
3110.000000	93.380	160.7171
3150.000000	93.065	163.9527
3200.000000	92.748	167.8809
3250.000000	92.471	172.0677
3300.000000	92.269	177.0294
3350.000000	92.211	-176.9456
3400.000000	92.367	-170.0674
3450.000000	92.759	-162.9793
3500.000000	93.365	-156.4346
3550.000000	94.140	-150.9333
3600.000000	95.042	-146.6538
3650.000000	96.034	-143.7176
3700.000000	97.065	-142.1989
3750.000000	98.089	-142.0186
3820.000000	99.438	-143.6172
3870.000000	100.306	-145.8228
3950.000000	101.499	-150.9120
4000.000000	102.131	-154.8749
4060.000000	102.796	-160.2393
4120.000000	103.344	-166.1714
4180.000000	103.760	-172.3405
4250.000000	104.094	-179.3298
4310.000000	104.277	174.9088
4370.000000	104.388	169.1337
4440.000000	104.462	162.1030
4500.000000	104.509	155.7963
4550.000000	104.546	150.4094
4620.000000	104.561	142.7742
4680.000000	104.502	136.2084
4750.000000	104.331	128.6866
4820.000000	104.055	121.5320
4870.000000	103.791	116.6611
4940.000000	103.317	109.9979
5000.000000	102.810	104.2080
5080.000000	101.976	96.3151
5150.000000	101.077	89.6532
5220.000000	100.040	83.7681
5300.000000	98.731	78.2243
5380.000000	97.325	73.8560
5450.000000	96.049	71.0791
5520.000000	94.766	69.4236
5600.000000	93.331	68.9482
5700.000000	91.651	70.5644
5800.000000	90.222	74.7313
5900.000000	89.180	80.7475
6000.000000	88.617	87.3930
6080.000000	88.521	92.5186
6150.000000	88.651	96.5469
6220.000000	88.917	99.8379
6300.000000	89.296	102.3273
6400.000000	89.730	103.1977
6500.000000	89.952	101.6179
6600.000000	89.836	98.2103
6700.000000	89.345	94.0848
6800.000000	88.515	90.5858
6900.000000	87.387	89.1033
7000.000000	86.007	91.1899
7100.000000	84.565	98.9413
7200.000000	83.508	114.1749
7300.000000	83.366	135.1141
7400.000000	84.264	155.5141
7500.000000	85.828	170.9150
7620.000000	88.035	-176.9712
7750.000000	90.476	-169.1497
7880.000000	92.777	-165.6353
8000.000000	94.589	-166.5379
8120.000000	95.896	-171.2794
8250.000000	96.556	-178.8545
8380.000000	96.383	173.8765
8500.000000	95.612	169.2996
8620.000000	94.503	167.6592
8750.000000	93.239	169.3867
8850.000000	92.387	172.6537
9000.000000	91.448	178.7370
9120.000000	90.984	-176.7979
9250.000000	90.670	-173.0100
9380.000000	90.450	-170.0292
9500.000000	90.276	-167.5578
9620.000000	90.130	-165.0946
9750.000000	90.038	-162.2542
9880.000000	90.062	-159.1209
10000.000000	90.192	-156.2802
10150.000000	90.405	-153.9791
10300.000000	90.468	-154.2605
10440.000000	90.174	-156.6064
10600.000000	89.381	-159.4048
10750.000000	88.500	-160.5011
10900.000000	87.793	-160.8358
11060.000000	87.140	-161.2462
11200.000000	86.438	-161.4446
11380.000000	85.234	-161.1995
11500.000000	84.265	-160.5988
11720.000000	82.304	-157.8915
11800.000000	81.579	-156.2595
12060.000000	79.333	-148.8440
12200.000000	78.217	-144.0362
12410.000000	76.591	-135.6473
12500.000000	75.927	-130.5175
12650.000000	75.141	-116.3693
12800.000000	75.323	-94.0022
13150.000000	78.663	-70.9939
13200.000000	79.078	-72.1386
13400.000000	80.080	-81.3135
13600.000000	80.075	-92.2633
13800.000000	79.384	-100.6620
14000.000000	78.415	-105.1287
14300.000000	77.039	-105.2290
14500.000000	76.297	-101.6774
14750.000000	75.620	-94.1026
15000.000000	75.338	-84.8248
15250.000000	75.501	-76.4902
15500.000000	75.953	-71.4276
15750.000000	76.368	-69.7365
16000.000000	76.503	-69.6992
16250.000000	76.280	-69.7232
16500.000000	75.713	-69.4428
16750.000000	74.815	-69.5631
17000.000000	73.558	-70.8023
17250.000000	71.932	-73.2790
17500.000000	69.985	-77.2733
17750.000000	67.786	-83.6645
18000.000000	65.423	-93.9641
18250.000000	63.094	-111.4158
18500.000000	61.193	-140.6532
18750.000000	60.133	-173.1717
19000.000000	59.878	168.5247
19250.000000	60.052	163.4023
19500.000000	60.292	165.1370
19750.000000	60.378	169.6887
20000.000000	60.306	173.7007
