* Measurement data measured by REW V5.31.1
* Source: Microphone (4- USB Audio Device), MICROPHONE (Master Volume), R, volume: 0.250
* Format: 256k Log Swept Sine, 1 sweep at -12.0 dBFS with no timing reference
* Dated: 24-May-2024 13:38:14
* REW Settings:
*  C-weighting compensation: Off
*  Target level: 75.0 dB
* Note: 
* Measurement: SIMGOT EA1000 Black R
* Smoothing: 1/12 octave
* Frequency Step: 1/48 octave
* Start Frequency: 20.300 Hz
*
* Freq(Hz)	SPL(dB)	Phase(degrees)
20.299999	76.640	-97.7737
20.600000	76.718	-98.5390
20.900000	76.815	-99.4915
21.200001	76.918	-100.5046
21.400000	76.986	-101.1894
21.799999	77.121	-102.5600
22.000000	77.188	-103.2413
22.400000	77.317	-104.5881
22.700001	77.411	-105.5802
23.000000	77.503	-106.5549
23.299999	77.591	-107.5123
23.600000	77.676	-108.4539
24.000000	77.785	-109.6886
24.299999	77.862	-110.6014
24.700001	77.961	-111.8033
25.000000	78.032	-112.6939
25.400000	78.123	-113.8663
25.799999	78.210	-115.0200
26.200001	78.293	-116.1524
26.500000	78.353	-116.9867
26.900000	78.431	-118.0789
27.200001	78.487	-118.8835
27.600000	78.560	-119.9392
28.000000	78.630	-120.9778
28.500000	78.714	-122.2550
29.000000	78.792	-123.5101
29.500000	78.866	-124.7428
30.000000	78.936	-125.9529
30.400000	78.989	-126.9049
30.700001	79.028	-127.6095
31.100000	79.078	-128.5357
31.500000	79.125	-129.4458
32.000000	79.182	-130.5590
32.500000	79.236	-131.6445
33.000000	79.287	-132.7038
33.500000	79.335	-133.7397
34.000000	79.381	-134.7550
34.500000	79.423	-135.7509
35.000000	79.464	-136.7271
35.500000	79.502	-137.6826
36.000000	79.539	-138.6170
36.500000	79.574	-139.5314
37.000000	79.607	-140.4289
37.500000	79.639	-141.3122
38.200001	79.680	-142.5275
38.700001	79.707	-143.3792
39.500000	79.749	-144.7102
40.000000	79.775	-145.5206
40.599998	79.804	-146.4701
41.200001	79.833	-147.3955
41.799999	79.860	-148.3002
42.500000	79.889	-149.3362
43.099998	79.912	-150.2103
43.700001	79.933	-151.0719
44.400002	79.956	-152.0615
45.000000	79.975	-152.8961
45.500000	79.990	-153.5815
46.200001	80.009	-154.5258
46.799999	80.024	-155.3219
47.500000	80.038	-156.2341
48.200001	80.048	-157.1262
48.700001	80.054	-157.7531
49.400002	80.060	-158.6216
50.000000	80.063	-159.3598
50.799999	80.063	-160.3314
51.500000	80.062	-161.1684
52.200001	80.060	-161.9951
53.000000	80.057	-162.9261
53.799999	80.051	-163.8388
54.500000	80.045	-164.6217
55.200001	80.037	-165.3901
56.000000	80.025	-166.2499
57.000000	80.009	-167.2983
58.000000	79.992	-168.3206
59.000000	79.975	-169.3164
60.000000	79.957	-170.2845
60.799999	79.943	-171.0389
61.500000	79.930	-171.6846
62.200001	79.915	-172.3176
63.000000	79.898	-173.0280
64.000000	79.875	-173.8994
65.000000	79.850	-174.7514
66.000000	79.824	-175.5791
67.000000	79.797	-176.3788
68.000000	79.768	-177.1512
69.000000	79.739	-177.9006
70.000000	79.709	-178.6303
71.000000	79.678	-179.3425
72.000000	79.648	179.9612
73.000000	79.617	179.2788
74.000000	79.585	178.6082
75.000000	79.552	177.9493
76.199997	79.511	177.1793
77.500000	79.466	176.3784
78.800003	79.421	175.6146
80.000000	79.379	174.9396
81.199997	79.337	174.2874
82.500000	79.292	173.6003
83.800003	79.246	172.9277
85.000000	79.203	172.3174
86.199997	79.161	171.7171
87.500000	79.116	171.0775
88.500000	79.081	170.5936
90.000000	79.028	169.8838
91.199997	78.985	169.3308
92.500000	78.938	168.7458
93.800003	78.892	168.1735
95.000000	78.849	167.6543
96.199997	78.806	167.1420
97.500000	78.760	166.5949
98.800003	78.714	166.0570
100.000000	78.672	165.5691
101.500000	78.619	164.9739
103.000000	78.567	164.4005
104.400002	78.518	163.8855
106.000000	78.461	163.3171
107.500000	78.407	162.8002
109.000000	78.352	162.2961
110.599998	78.294	161.7701
112.000000	78.244	161.3194
113.800003	78.180	160.7531
115.000000	78.138	160.3845
117.199997	78.059	159.7278
118.000000	78.031	159.4944
120.599998	77.934	158.7538
122.000000	77.880	158.3716
124.099998	77.798	157.8251
125.000000	77.762	157.6001
126.500000	77.701	157.2362
128.000000	77.641	156.8859
131.500000	77.500	156.1208
132.000000	77.480	156.0178
134.000000	77.399	155.6235
136.000000	77.317	155.2609
138.000000	77.233	154.9333
140.000000	77.149	154.6503
143.000000	77.022	154.3278
145.000000	76.940	154.1771
147.500000	76.845	154.0425
150.000000	76.761	153.9382
152.500000	76.688	153.8395
155.000000	76.623	153.7355
157.500000	76.565	153.6232
160.000000	76.509	153.5042
162.500000	76.453	153.3921
165.000000	76.398	153.3080
167.500000	76.345	153.2606
170.000000	76.298	153.2416
172.500000	76.256	153.2369
175.000000	76.216	153.2463
177.500000	76.179	153.2858
180.000000	76.149	153.3483
182.500000	76.130	153.3842
185.000000	76.123	153.3355
187.500000	76.122	153.1688
190.000000	76.124	152.8899
192.500000	76.123	152.5328
195.000000	76.115	152.1306
197.500000	76.096	151.7087
200.000000	76.067	151.2903
203.000000	76.021	150.8250
206.000000	75.967	150.4197
209.000000	75.906	150.0764
212.000000	75.842	149.7807
214.000000	75.798	149.6005
218.000000	75.707	149.2680
220.000000	75.661	149.1147
224.000000	75.568	148.8378
227.000000	75.496	148.6600
230.000000	75.426	148.5112
233.000000	75.357	148.3936
236.000000	75.291	148.3077
240.000000	75.206	148.2415
243.000000	75.143	148.2256
247.000000	75.059	148.2453
250.000000	74.996	148.2884
254.000000	74.912	148.3682
258.000000	74.828	148.4462
262.000000	74.746	148.5074
265.000000	74.684	148.5450
269.000000	74.602	148.5952
272.000000	74.542	148.6399
276.000000	74.462	148.7127
280.000000	74.385	148.8022
285.000000	74.294	148.9353
290.000000	74.209	149.0876
295.000000	74.128	149.2584
300.000000	74.046	149.4449
304.000000	73.980	149.6015
307.000000	73.931	149.7209
311.000000	73.867	149.8820
315.000000	73.805	150.0463
320.000000	73.731	150.2572
325.000000	73.661	150.4745
330.000000	73.592	150.7003
335.000000	73.525	150.9333
340.000000	73.460	151.1680
345.000000	73.396	151.3983
350.000000	73.335	151.6239
355.000000	73.277	151.8493
360.000000	73.219	152.0782
365.000000	73.164	152.3153
370.000000	73.111	152.5590
375.000000	73.061	152.8031
382.000000	72.996	153.1405
387.000000	72.950	153.3801
395.000000	72.877	153.7497
400.000000	72.830	153.9589
406.000000	72.775	154.1882
412.000000	72.719	154.4099
418.000000	72.666	154.6430
425.000000	72.610	154.9297
431.000000	72.567	155.1666
437.000000	72.527	155.3888
444.000000	72.480	155.6341
450.000000	72.437	155.8266
455.000000	72.399	155.9706
462.000000	72.347	156.1654
468.000000	72.304	156.3592
475.000000	72.259	156.6601
482.000000	72.221	157.0592
487.000000	72.198	157.3923
494.000000	72.173	157.8918
500.000000	72.153	158.3273
508.000000	72.122	158.8913
515.000000	72.090	159.3450
522.000000	72.057	159.7485
530.000000	72.022	160.1552
538.000000	71.992	160.5362
545.000000	71.968	160.8760
552.000000	71.945	161.2246
560.000000	71.922	161.6153
570.000000	71.897	162.0756
580.000000	71.872	162.5206
590.000000	71.846	162.9629
600.000000	71.823	163.3982
608.000000	71.808	163.7551
615.000000	71.796	164.0869
622.000000	71.784	164.4368
630.000000	71.770	164.8506
640.000000	71.755	165.3820
650.000000	71.743	165.9300
660.000000	71.732	166.4923
670.000000	71.721	167.0659
680.000000	71.714	167.6476
690.000000	71.709	168.2375
700.000000	71.705	168.8560
710.000000	71.703	169.5304
720.000000	71.704	170.2635
730.000000	71.711	171.0521
740.000000	71.720	171.9052
750.000000	71.730	172.8245
762.000000	71.744	173.9932
775.000000	71.766	175.3206
788.000000	71.791	176.6989
800.000000	71.818	177.9751
812.000000	71.846	179.2377
825.000000	71.881	-179.4099
838.000000	71.919	-178.0773
850.000000	71.956	-176.8488
862.000000	71.998	-175.6043
875.000000	72.051	-174.2441
885.000000	72.103	-173.2177
900.000000	72.196	-171.8110
912.000000	72.276	-170.8339
925.000000	72.366	-169.8802
938.000000	72.459	-168.9988
950.000000	72.544	-168.2227
962.000000	72.625	-167.4526
975.000000	72.709	-166.6153
988.000000	72.791	-165.7743
1000.000000	72.868	-164.9815
1015.000000	72.972	-163.9387
1030.000000	73.084	-162.8344
1044.000000	73.194	-161.7869
1060.000000	73.322	-160.6522
1075.000000	73.439	-159.7131
1090.000000	73.554	-158.9060
1106.000000	73.679	-158.1409
1120.000000	73.791	-157.4926
1138.000000	73.940	-156.6244
1150.000000	74.041	-156.0142
1172.000000	74.225	-154.8575
1180.000000	74.291	-154.4360
1206.000000	74.498	-153.1066
1220.000000	74.606	-152.4218
1241.000000	74.763	-151.4355
1250.000000	74.830	-151.0285
1265.000000	74.940	-150.3780
1280.000000	75.049	-149.7819
1315.000000	75.281	-148.6851
1320.000000	75.312	-148.5535
1340.000000	75.433	-148.0351
1360.000000	75.559	-147.4738
1380.000000	75.686	-146.8830
1400.000000	75.809	-146.3512
1430.000000	75.983	-145.7826
1450.000000	76.098	-145.5577
1475.000000	76.241	-145.4027
1500.000000	76.383	-145.2857
1525.000000	76.537	-145.0976
1550.000000	76.705	-144.8744
1575.000000	76.870	-144.7387
1600.000000	77.029	-144.7142
1625.000000	77.192	-144.6903
1650.000000	77.363	-144.5940
1675.000000	77.539	-144.4531
1700.000000	77.714	-144.3408
1725.000000	77.890	-144.3013
1750.000000	78.064	-144.3174
1775.000000	78.240	-144.3199
1800.000000	78.422	-144.2328
1825.000000	78.611	-144.0300
1850.000000	78.805	-143.7505
1875.000000	79.001	-143.4636
1900.000000	79.198	-143.2334
1925.000000	79.398	-143.0880
1950.000000	79.603	-143.0464
1975.000000	79.813	-143.1415
2000.000000	80.025	-143.4032
2030.000000	80.283	-143.9323
2060.000000	80.544	-144.6112
2090.000000	80.811	-145.3266
2120.000000	81.080	-146.0352
2140.000000	81.256	-146.5262
2180.000000	81.588	-147.6380
2200.000000	81.742	-148.2706
2240.000000	82.026	-149.6432
2270.000000	82.218	-150.7204
2300.000000	82.396	-151.8095
2330.000000	82.560	-152.9286
2360.000000	82.706	-154.1388
2400.000000	82.875	-155.9554
2430.000000	82.987	-157.4666
2470.000000	83.116	-159.7062
2500.000000	83.194	-161.6068
2540.000000	83.269	-164.3802
2580.000000	83.321	-167.1669
2620.000000	83.356	-169.6872
2650.000000	83.372	-171.3372
2690.000000	83.379	-173.2567
2720.000000	83.371	-174.5565
2760.000000	83.345	-176.2298
2800.000000	83.295	-177.9224
2850.000000	83.208	-179.9646
2900.000000	83.108	178.3360
2950.000000	82.998	177.0170
3000.000000	82.876	175.8970
3040.000000	82.770	175.0050
3070.000000	82.688	174.2799
3110.000000	82.573	173.1901
3150.000000	82.454	171.9486
3200.000000	82.301	170.2963
3250.000000	82.151	168.7756
3300.000000	82.011	167.6060
3350.000000	81.884	166.7890
3400.000000	81.763	166.0919
3450.000000	81.641	165.3637
3500.000000	81.524	164.7634
3550.000000	81.418	164.6143
3600.000000	81.329	165.1561
3650.000000	81.258	166.3675
3700.000000	81.197	167.9867
3750.000000	81.144	169.6777
3820.000000	81.077	171.6423
3870.000000	81.031	172.5915
3950.000000	80.964	173.4895
4000.000000	80.933	173.9232
4060.000000	80.912	174.4860
4120.000000	80.903	175.0472
4180.000000	80.903	175.5318
4250.000000	80.914	176.0410
4310.000000	80.934	176.5633
4370.000000	80.966	177.2747
4440.000000	81.015	178.4110
4500.000000	81.069	179.6290
4550.000000	81.120	-179.2428
4620.000000	81.200	-177.6114
4680.000000	81.275	-176.3014
4750.000000	81.362	-175.0070
4820.000000	81.452	-173.9273
4870.000000	81.518	-173.2570
4940.000000	81.606	-172.4773
5000.000000	81.676	-171.9592
5080.000000	81.758	-171.5077
5150.000000	81.811	-171.3222
5220.000000	81.844	-171.1238
5300.000000	81.861	-170.4799
5380.000000	81.857	-169.2281
5450.000000	81.830	-167.9062
5520.000000	81.773	-166.7802
5600.000000	81.669	-166.0443
5700.000000	81.488	-165.8641
5800.000000	81.263	-166.0127
5900.000000	81.003	-166.0558
6000.000000	80.718	-165.6424
6080.000000	80.484	-164.7485
6150.000000	80.297	-163.3568
6220.000000	80.149	-161.4188
6300.000000	80.030	-158.9543
6400.000000	79.899	-156.1017
6500.000000	79.751	-153.4749
6600.000000	79.596	-151.0953
6700.000000	79.457	-149.0440
6800.000000	79.355	-147.0799
6900.000000	79.304	-144.8312
7000.000000	79.311	-142.2180
7100.000000	79.368	-139.6336
7200.000000	79.469	-137.5589
7300.000000	79.605	-136.3564
7400.000000	79.762	-136.2812
7500.000000	79.915	-137.4015
7620.000000	80.061	-139.8725
7750.000000	80.135	-142.8341
7880.000000	80.074	-145.3826
8000.000000	79.855	-147.5119
8120.000000	79.462	-149.3754
8250.000000	78.854	-150.5126
8380.000000	78.086	-150.3541
8500.000000	77.268	-149.1518
8620.000000	76.378	-147.1503
8750.000000	75.378	-144.0612
8850.000000	74.610	-140.9649
9000.000000	73.497	-135.4464
9120.000000	72.656	-130.7904
9250.000000	71.802	-125.9602
9380.000000	71.013	-121.3150
9500.000000	70.345	-116.7216
9620.000000	69.743	-111.2338
9750.000000	69.167	-104.0505
9880.000000	68.663	-95.9605
10000.000000	68.253	-88.1093
10150.000000	67.810	-77.9866
10300.000000	67.446	-67.2553
10440.000000	67.179	-56.4607
10600.000000	66.956	-43.4113
10750.000000	66.829	-30.6277
10900.000000	66.789	-17.2751
11060.000000	66.846	-2.5840
11200.000000	66.978	10.4329
11380.000000	67.263	26.8847
11500.000000	67.523	37.2046
11720.000000	68.151	54.1726
11800.000000	68.431	59.8278
12060.000000	69.561	77.5453
12200.000000	70.309	86.6932
12410.000000	71.585	98.8868
12500.000000	72.175	103.3558
12650.000000	73.186	109.6799
12800.000000	74.192	114.5326
13150.000000	76.205	120.3582
13200.000000	76.415	120.6317
13400.000000	76.940	120.7535
13600.000000	76.869	120.4729
13800.000000	76.221	121.4817
14000.000000	75.175	125.1626
14300.000000	73.365	136.1311
14500.000000	72.256	145.4240
14750.000000	71.142	156.1371
15000.000000	70.354	163.5008
15250.000000	69.852	167.5126
15500.000000	69.546	169.0442
15750.000000	69.292	169.0135
16000.000000	68.928	168.5742
16250.000000	68.327	168.6874
16500.000000	67.417	169.8010
16750.000000	66.188	172.6685
17000.000000	64.668	178.3869
17250.000000	62.925	-171.7874
17500.000000	61.128	-155.5854
17750.000000	59.715	-128.3681
18000.000000	59.254	-95.0993
18250.000000	59.546	-74.1754
18500.000000	59.826	-64.2683
18750.000000	59.780	-58.0389
19000.000000	59.449	-52.8847
19250.000000	58.905	-48.7499
19500.000000	58.215	-45.5791
19750.000000	57.522	-43.0589
20000.000000	57.080	-41.4823
