* Measurement data measured by REW V5.30.4
* Source: Microphone (4- USB Audio Device), MICROPHONE (Master Volume), R, volume: 0.250
* Format: 256k Log Swept Sine, 1 sweep at -12.0 dBFS with no timing reference
* Dated: 15-Jan-2024 15:34:32
* REW Settings:
*  C-weighting compensation: Off
*  Target level: 75.0 dB
* Note: 
* Measurement: Simgot EA500 LM Blue
* Smoothing: 1/12 octave
* Frequency Step: 1/48 octave
* Start Frequency: 20.300 Hz
*
* Freq(Hz)	SPL(dB)	Phase(degrees)
20.299999	75.764	-100.6226
20.600000	75.832	-101.2997
20.900000	75.917	-102.1361
21.200001	76.005	-103.0186
21.400000	76.064	-103.6122
21.799999	76.181	-104.7976
22.000000	76.238	-105.3875
22.400000	76.351	-106.5590
22.700001	76.434	-107.4283
23.000000	76.515	-108.2880
23.299999	76.594	-109.1370
23.600000	76.670	-109.9747
24.000000	76.767	-111.0726
24.299999	76.836	-111.8807
24.700001	76.923	-112.9365
25.000000	76.985	-113.7126
25.400000	77.063	-114.7293
25.799999	77.138	-115.7297
26.200001	77.209	-116.7181
26.500000	77.260	-117.4525
26.900000	77.325	-118.4210
27.200001	77.373	-119.1371
27.600000	77.434	-120.0741
28.000000	77.492	-120.9871
28.500000	77.560	-122.0915
29.000000	77.624	-123.1566
29.500000	77.682	-124.1893
30.000000	77.736	-125.1993
30.400000	77.777	-125.9966
30.700001	77.806	-126.5895
31.100000	77.844	-127.3728
31.500000	77.880	-128.1454
32.000000	77.924	-129.0911
32.500000	77.965	-130.0093
33.000000	78.005	-130.8979
33.500000	78.042	-131.7580
34.000000	78.077	-132.5934
34.500000	78.109	-133.4087
35.000000	78.138	-134.2067
35.500000	78.165	-134.9873
36.000000	78.191	-135.7487
36.500000	78.215	-136.4900
37.000000	78.239	-137.2129
37.500000	78.260	-137.9196
38.200001	78.287	-138.8820
38.700001	78.302	-139.5478
39.500000	78.323	-140.5749
40.000000	78.336	-141.1977
40.599998	78.350	-141.9311
41.200001	78.364	-142.6496
41.799999	78.378	-143.3502
42.500000	78.393	-144.1429
43.099998	78.406	-144.8038
43.700001	78.417	-145.4505
44.400002	78.425	-146.1853
45.000000	78.430	-146.7946
45.500000	78.433	-147.2885
46.200001	78.437	-147.9657
46.799999	78.439	-148.5367
47.500000	78.438	-149.1870
48.200001	78.434	-149.8134
48.700001	78.431	-150.2467
49.400002	78.425	-150.8379
50.000000	78.418	-151.3331
50.799999	78.407	-151.9803
51.500000	78.396	-152.5366
52.200001	78.382	-153.0800
53.000000	78.363	-153.6776
53.799999	78.344	-154.2488
54.500000	78.326	-154.7314
55.200001	78.308	-155.2018
56.000000	78.286	-155.7279
57.000000	78.257	-156.3715
58.000000	78.226	-156.9951
59.000000	78.192	-157.5939
60.000000	78.157	-158.1693
60.799999	78.128	-158.6111
61.500000	78.102	-158.9828
62.200001	78.074	-159.3416
63.000000	78.043	-159.7368
64.000000	78.003	-160.2077
65.000000	77.962	-160.6508
66.000000	77.921	-161.0631
67.000000	77.879	-161.4432
68.000000	77.837	-161.7966
69.000000	77.796	-162.1308
70.000000	77.755	-162.4488
71.000000	77.713	-162.7493
72.000000	77.669	-163.0297
73.000000	77.625	-163.2877
74.000000	77.580	-163.5237
75.000000	77.533	-163.7422
76.199997	77.476	-163.9877
77.500000	77.414	-164.2296
78.800003	77.352	-164.4361
80.000000	77.293	-164.6093
81.199997	77.234	-164.7823
82.500000	77.171	-164.9601
83.800003	77.110	-165.1152
85.000000	77.053	-165.2406
86.199997	76.998	-165.3476
87.500000	76.938	-165.4397
88.500000	76.893	-165.4977
90.000000	76.825	-165.5711
91.199997	76.771	-165.6194
92.500000	76.713	-165.6603
93.800003	76.656	-165.6856
95.000000	76.602	-165.6927
96.199997	76.550	-165.6836
97.500000	76.493	-165.6561
98.800003	76.438	-165.6129
100.000000	76.388	-165.5627
101.500000	76.327	-165.4913
103.000000	76.266	-165.4152
104.400002	76.209	-165.3406
106.000000	76.144	-165.2489
107.500000	76.084	-165.1560
109.000000	76.025	-165.0549
110.599998	75.961	-164.9333
112.000000	75.905	-164.8115
113.800003	75.833	-164.6351
115.000000	75.785	-164.5094
117.199997	75.696	-164.2692
118.000000	75.664	-164.1792
120.599998	75.563	-163.8743
122.000000	75.510	-163.6980
124.099998	75.429	-163.4088
125.000000	75.393	-163.2783
126.500000	75.334	-163.0603
128.000000	75.274	-162.8402
131.500000	75.137	-162.2846
132.000000	75.117	-162.2014
134.000000	75.039	-161.8607
136.000000	74.962	-161.5033
138.000000	74.886	-161.1250
140.000000	74.808	-160.7223
143.000000	74.691	-160.0676
145.000000	74.611	-159.6014
147.500000	74.510	-158.9944
150.000000	74.407	-158.3630
152.500000	74.302	-157.6877
155.000000	74.196	-156.9451
157.500000	74.090	-156.1201
160.000000	73.993	-155.2068
162.500000	73.909	-154.2296
165.000000	73.843	-153.2480
167.500000	73.792	-152.3317
170.000000	73.742	-151.5211
172.500000	73.681	-150.8019
175.000000	73.602	-150.1080
177.500000	73.505	-149.3651
180.000000	73.395	-148.5157
182.500000	73.279	-147.5274
185.000000	73.168	-146.3938
187.500000	73.073	-145.1309
190.000000	73.005	-143.7802
192.500000	72.971	-142.4144
195.000000	72.967	-141.1330
197.500000	72.983	-140.0217
200.000000	73.003	-139.1104
203.000000	73.017	-138.2293
206.000000	73.006	-137.4639
209.000000	72.971	-136.7007
212.000000	72.917	-135.8751
214.000000	72.875	-135.2786
218.000000	72.785	-133.9808
220.000000	72.738	-133.2858
224.000000	72.642	-131.8161
227.000000	72.568	-130.6575
230.000000	72.495	-129.4627
233.000000	72.424	-128.2413
236.000000	72.356	-127.0048
240.000000	72.268	-125.3539
243.000000	72.203	-124.1213
247.000000	72.118	-122.4804
250.000000	72.056	-121.2468
254.000000	71.973	-119.5987
258.000000	71.890	-117.9511
262.000000	71.808	-116.2958
265.000000	71.749	-115.0379
269.000000	71.672	-113.3276
272.000000	71.615	-112.0170
276.000000	71.540	-110.2343
280.000000	71.465	-108.4206
285.000000	71.371	-106.1265
290.000000	71.282	-103.8222
295.000000	71.193	-101.5189
300.000000	71.106	-99.1862
304.000000	71.040	-97.2870
307.000000	70.995	-95.8584
311.000000	70.940	-93.9765
315.000000	70.890	-92.1426
320.000000	70.826	-89.9224
325.000000	70.759	-87.7762
330.000000	70.685	-85.7066
335.000000	70.607	-83.7173
340.000000	70.533	-81.7978
345.000000	70.473	-79.9226
350.000000	70.428	-78.0685
355.000000	70.395	-76.2373
360.000000	70.367	-74.4425
365.000000	70.340	-72.6828
370.000000	70.310	-70.9460
375.000000	70.276	-69.2326
382.000000	70.224	-66.8832
387.000000	70.186	-65.2366
395.000000	70.125	-62.6383
400.000000	70.085	-61.0377
406.000000	70.035	-59.1487
412.000000	69.986	-57.2902
418.000000	69.937	-55.4456
425.000000	69.883	-53.3017
431.000000	69.840	-51.4785
437.000000	69.800	-49.6776
444.000000	69.753	-47.6060
450.000000	69.713	-45.8558
455.000000	69.679	-44.4169
462.000000	69.631	-42.4270
468.000000	69.591	-40.7293
475.000000	69.550	-38.7376
482.000000	69.512	-36.7281
487.000000	69.488	-35.2866
494.000000	69.457	-33.2656
500.000000	69.430	-31.5310
508.000000	69.393	-29.2097
515.000000	69.359	-27.1654
522.000000	69.328	-25.1054
530.000000	69.297	-22.7287
538.000000	69.271	-20.3369
545.000000	69.248	-18.2389
552.000000	69.224	-16.1386
560.000000	69.196	-13.7427
570.000000	69.164	-10.7608
580.000000	69.135	-7.7843
590.000000	69.108	-4.7883
600.000000	69.087	-1.7748
608.000000	69.076	0.6191
615.000000	69.068	2.6714
622.000000	69.058	4.6667
630.000000	69.040	6.8836
640.000000	69.012	9.6075
650.000000	68.988	12.3330
660.000000	68.973	15.1290
670.000000	68.966	18.0770
680.000000	68.963	21.2002
690.000000	68.967	24.4573
700.000000	68.980	27.7879
710.000000	68.996	31.1369
720.000000	69.009	34.4567
730.000000	69.020	37.7091
740.000000	69.033	40.8728
750.000000	69.050	43.9505
762.000000	69.070	47.5534
775.000000	69.090	51.3759
788.000000	69.115	55.1709
800.000000	69.148	58.7022
812.000000	69.191	62.2549
825.000000	69.242	66.1052
838.000000	69.294	69.9475
850.000000	69.349	73.4735
862.000000	69.412	76.9664
875.000000	69.489	80.6899
885.000000	69.552	83.4640
900.000000	69.643	87.4257
912.000000	69.712	90.4675
925.000000	69.789	93.7100
938.000000	69.877	96.9598
950.000000	69.970	99.9941
962.000000	70.070	103.0302
975.000000	70.177	106.2563
988.000000	70.281	109.3883
1000.000000	70.376	112.2004
1015.000000	70.498	115.6364
1030.000000	70.626	119.0221
1044.000000	70.749	122.1516
1060.000000	70.891	125.6874
1075.000000	71.026	128.9442
1090.000000	71.163	132.1380
1106.000000	71.308	135.4775
1120.000000	71.433	138.3336
1138.000000	71.586	141.9338
1150.000000	71.684	144.3258
1172.000000	71.858	148.7633
1180.000000	71.920	150.4030
1206.000000	72.111	155.8125
1220.000000	72.204	158.7235
1241.000000	72.330	162.9917
1250.000000	72.379	164.7692
1265.000000	72.455	167.6523
1280.000000	72.529	170.4336
1315.000000	72.708	176.6393
1320.000000	72.736	177.5072
1340.000000	72.857	-179.0645
1360.000000	72.989	-175.7446
1380.000000	73.121	-172.5860
1400.000000	73.251	-169.6009
1430.000000	73.450	-165.3530
1450.000000	73.586	-162.5948
1475.000000	73.759	-159.1910
1500.000000	73.938	-155.8382
1525.000000	74.123	-152.5945
1550.000000	74.309	-149.4870
1575.000000	74.501	-146.4957
1600.000000	74.701	-143.6292
1625.000000	74.899	-140.9220
1650.000000	75.092	-138.3537
1675.000000	75.287	-135.8128
1700.000000	75.488	-133.2033
1725.000000	75.695	-130.5305
1750.000000	75.902	-127.8780
1775.000000	76.105	-125.3186
1800.000000	76.307	-122.8550
1825.000000	76.510	-120.4427
1850.000000	76.715	-118.0204
1875.000000	76.922	-115.5228
1900.000000	77.135	-112.9100
1925.000000	77.355	-110.2014
1950.000000	77.575	-107.4729
1975.000000	77.792	-104.7820
2000.000000	78.007	-102.1205
2030.000000	78.269	-98.9153
2060.000000	78.534	-95.6902
2090.000000	78.796	-92.5142
2120.000000	79.052	-89.4559
2140.000000	79.220	-87.4974
2180.000000	79.549	-83.8074
2200.000000	79.708	-82.0924
2240.000000	80.014	-78.9387
2270.000000	80.234	-76.7601
2300.000000	80.449	-74.6736
2330.000000	80.658	-72.6766
2360.000000	80.857	-70.8296
2400.000000	81.099	-68.6934
2430.000000	81.265	-67.3474
2470.000000	81.466	-65.9313
2500.000000	81.595	-65.2047
2540.000000	81.731	-64.6232
2580.000000	81.842	-64.2364
2620.000000	81.929	-63.8549
2650.000000	81.976	-63.5598
2690.000000	82.012	-63.1524
2720.000000	82.022	-62.8037
2760.000000	82.017	-62.2252
2800.000000	81.993	-61.4830
2850.000000	81.940	-60.3628
2900.000000	81.862	-59.1206
2950.000000	81.767	-57.7604
3000.000000	81.662	-56.2722
3040.000000	81.570	-55.0336
3070.000000	81.499	-54.0979
3110.000000	81.401	-52.8448
3150.000000	81.298	-51.5400
3200.000000	81.172	-49.6564
3250.000000	81.053	-47.3253
3300.000000	80.942	-44.5632
3350.000000	80.838	-41.5407
3400.000000	80.739	-38.4885
3450.000000	80.645	-35.5186
3500.000000	80.559	-32.5532
3550.000000	80.488	-29.4464
3600.000000	80.432	-26.1371
3650.000000	80.391	-22.7034
3700.000000	80.360	-19.2859
3750.000000	80.338	-15.9976
3820.000000	80.322	-11.5997
3870.000000	80.323	-8.5003
3950.000000	80.346	-3.5157
4000.000000	80.375	-0.3743
4060.000000	80.427	3.3775
4120.000000	80.495	6.9213
4180.000000	80.573	10.0079
4250.000000	80.669	12.9414
4310.000000	80.761	15.0450
4370.000000	80.862	16.8710
4440.000000	80.983	18.5913
4500.000000	81.089	19.7056
4550.000000	81.178	20.4299
4620.000000	81.302	21.2660
4680.000000	81.408	21.9330
4750.000000	81.528	22.6560
4820.000000	81.634	23.1487
4870.000000	81.696	23.2833
4940.000000	81.763	23.1792
5000.000000	81.801	22.7807
5080.000000	81.809	21.6179
5150.000000	81.774	19.9455
5220.000000	81.696	17.7151
5300.000000	81.550	14.7258
5380.000000	81.352	11.7604
5450.000000	81.141	9.4773
5520.000000	80.896	7.5655
5600.000000	80.582	5.8870
5700.000000	80.157	4.5145
5800.000000	79.707	3.7217
5900.000000	79.251	3.4524
6000.000000	78.801	3.6416
6080.000000	78.450	3.9883
6150.000000	78.154	4.3475
6220.000000	77.871	4.7037
6300.000000	77.564	5.0842
6400.000000	77.211	5.6474
6500.000000	76.901	6.6898
6600.000000	76.644	8.4364
6700.000000	76.434	10.6235
6800.000000	76.272	13.1680
6900.000000	76.170	16.3445
7000.000000	76.131	20.3021
7100.000000	76.155	25.0531
7200.000000	76.242	30.3461
7300.000000	76.381	35.5216
7400.000000	76.565	39.9565
7500.000000	76.791	43.4916
7620.000000	77.119	46.8311
7750.000000	77.534	49.5621
7880.000000	77.986	50.7197
8000.000000	78.390	49.3307
8120.000000	78.732	45.2629
8250.000000	78.984	38.7091
8380.000000	79.059	31.1042
8500.000000	78.929	23.8351
8620.000000	78.599	16.8126
8750.000000	78.032	9.8682
8850.000000	77.479	5.3033
9000.000000	76.530	0.2169
9120.000000	75.719	-2.3564
9250.000000	74.835	-4.1061
9380.000000	73.977	-5.3837
9500.000000	73.231	-6.5730
9620.000000	72.549	-7.7439
9750.000000	71.908	-8.6013
9880.000000	71.378	-8.7139
10000.000000	70.986	-8.0876
10150.000000	70.621	-6.3467
10300.000000	70.390	-3.7046
10440.000000	70.290	-0.8141
10600.000000	70.312	2.6127
10750.000000	70.473	5.8546
10900.000000	70.781	9.3637
11060.000000	71.291	13.7504
11200.000000	71.894	17.9077
11380.000000	72.870	22.7469
11500.000000	73.628	25.0446
11720.000000	75.123	26.0420
11800.000000	75.651	25.0873
12060.000000	76.988	16.5363
12200.000000	77.299	9.1381
12410.000000	77.072	-2.9641
12500.000000	76.725	-7.6448
12650.000000	75.873	-14.0427
12800.000000	74.770	-18.6165
13150.000000	71.827	-24.9531
13200.000000	71.411	-25.6757
13400.000000	69.835	-28.4562
13600.000000	68.437	-30.9338
13800.000000	67.223	-33.3679
14000.000000	66.185	-36.4938
14300.000000	64.956	-42.5227
14500.000000	64.354	-46.3834
14750.000000	63.837	-50.6581
15000.000000	63.563	-56.1585
15250.000000	63.541	-64.3545
15500.000000	63.814	-75.0543
15750.000000	64.375	-88.5004
16000.000000	65.141	-105.3448
16250.000000	65.973	-126.0049
16500.000000	66.724	-149.8829
16750.000000	67.273	-176.0647
17000.000000	67.560	155.5249
17250.000000	67.591	124.8252
17500.000000	67.415	92.9715
17750.000000	67.076	61.9993
18000.000000	66.587	32.8791
18250.000000	65.937	4.9260
18500.000000	65.108	-22.8163
18750.000000	64.095	-50.4035
19000.000000	62.918	-77.2614
19250.000000	61.616	-103.5267
19500.000000	60.278	-129.4726
19750.000000	59.100	-152.7373
20000.000000	58.403	-166.8083
