* Measurement data measured by REW V5.20.13
* Source: Microphone (4- USB Audio Device), MICROPHONE (Master Volume), L, volume: 0.250. Timing signal peak level -37.9 dBFS, measurement signal peak level -35.1 dBFS
* Format: 256k Log Swept Sine, 1 sweep at -12.0 dBFS using an acoustic timing reference
* Dated: 13-Feb-2023 17:25:58
* REW Settings:
*  C-weighting compensation: Off
*  Target level: 75.0 dB
* Note: 
* Measurement: SoundPEATS Life Classic L
* Smoothing: 1/12 octave
* Frequency Step: 1/48 octave
* Start Frequency: 20.300 Hz
*
* Freq(Hz)	SPL(dB)	Phase(degrees)
20.299999	64.863	95.4291
20.600000	64.923	94.8708
20.900000	65.063	93.6761
21.200001	65.199	92.3313
21.400000	65.283	91.4429
21.799999	65.448	89.8069
22.000000	65.535	89.1017
22.400000	65.735	87.9248
22.700001	65.907	87.1825
23.000000	66.089	86.4782
23.299999	66.267	85.7561
23.600000	66.433	84.9965
24.000000	66.627	83.9352
24.299999	66.753	83.1365
24.700001	66.906	82.1152
25.000000	67.019	81.4016
25.400000	67.176	80.5212
25.799999	67.346	79.6963
26.200001	67.528	78.8829
26.500000	67.668	78.2512
26.900000	67.856	77.3495
27.200001	67.995	76.6157
27.600000	68.178	75.5599
28.000000	68.358	74.4359
28.500000	68.578	72.9850
29.000000	68.790	71.5362
29.500000	68.989	70.1186
30.000000	69.165	68.7486
30.400000	69.287	67.6964
30.700001	69.370	66.9365
31.100000	69.476	65.9602
31.500000	69.582	65.0147
32.000000	69.725	63.8469
32.500000	69.880	62.6644
33.000000	70.041	61.4549
33.500000	70.199	60.2266
34.000000	70.348	58.9906
34.500000	70.486	57.7493
35.000000	70.612	56.5021
35.500000	70.730	55.2568
36.000000	70.843	54.0289
36.500000	70.958	52.8256
37.000000	71.079	51.6360
37.500000	71.204	50.4401
38.200001	71.375	48.7437
38.700001	71.488	47.5374
39.500000	71.655	45.6658
40.000000	71.751	44.5236
40.599998	71.857	43.1472
41.200001	71.949	41.7422
41.799999	72.024	40.3098
42.500000	72.093	38.6127
43.099998	72.139	37.1327
43.700001	72.176	35.6228
44.400002	72.212	33.8241
45.000000	72.237	32.2576
45.500000	72.254	30.9411
46.200001	72.275	29.0924
46.799999	72.291	27.5175
47.500000	72.308	25.7180
48.200001	72.323	23.9852
48.700001	72.332	22.7964
49.400002	72.337	21.2000
50.000000	72.331	19.8852
50.799999	72.306	18.1763
51.500000	72.276	16.6777
52.200001	72.245	15.1432
53.000000	72.212	13.3560
53.799999	72.178	11.5933
54.500000	72.145	10.1128
55.200001	72.111	8.6885
56.000000	72.069	7.0894
57.000000	72.011	5.0870
58.000000	71.939	3.1233
59.000000	71.854	1.2505
60.000000	71.762	-0.5694
60.799999	71.691	-2.0109
61.500000	71.633	-3.2481
62.200001	71.578	-4.4471
63.000000	71.514	-5.7690
64.000000	71.431	-7.3671
65.000000	71.346	-8.9136
66.000000	71.263	-10.4116
67.000000	71.181	-11.8793
68.000000	71.099	-13.3073
69.000000	71.015	-14.6596
70.000000	70.930	-15.9224
71.000000	70.841	-17.1045
72.000000	70.752	-18.2294
73.000000	70.665	-19.3171
74.000000	70.578	-20.3669
75.000000	70.487	-21.3804
76.199997	70.370	-22.5751
77.500000	70.243	-23.8650
78.800003	70.126	-25.1104
80.000000	70.027	-26.1726
81.199997	69.929	-27.1552
82.500000	69.820	-28.1664
83.800003	69.711	-29.1573
85.000000	69.611	-30.0507
86.199997	69.509	-30.9021
87.500000	69.391	-31.7864
88.500000	69.298	-32.4571
90.000000	69.164	-33.4376
91.199997	69.061	-34.1755
92.500000	68.953	-34.9268
93.800003	68.844	-35.6486
95.000000	68.743	-36.3046
96.199997	68.637	-36.9583
97.500000	68.523	-37.6590
98.800003	68.412	-38.3448
100.000000	68.314	-38.9673
101.500000	68.196	-39.7378
103.000000	68.084	-40.4886
104.400002	67.983	-41.1546
106.000000	67.867	-41.8690
107.500000	67.749	-42.4941
109.000000	67.626	-43.0823
110.599998	67.498	-43.6882
112.000000	67.390	-44.2170
113.800003	67.257	-44.8962
115.000000	67.170	-45.3368
117.199997	67.009	-46.0917
118.000000	66.951	-46.3513
120.599998	66.759	-47.1536
122.000000	66.656	-47.5543
124.099998	66.506	-48.1269
125.000000	66.444	-48.3667
126.500000	66.346	-48.7612
128.000000	66.253	-49.1452
131.500000	66.028	-49.9895
132.000000	65.995	-50.1061
134.000000	65.864	-50.5523
136.000000	65.738	-50.9458
138.000000	65.615	-51.2918
140.000000	65.493	-51.6176
143.000000	65.316	-52.0723
145.000000	65.201	-52.3635
147.500000	65.059	-52.7141
150.000000	64.919	-53.0461
152.500000	64.788	-53.3603
155.000000	64.662	-53.6471
157.500000	64.534	-53.9271
160.000000	64.407	-54.1795
162.500000	64.286	-54.3796
165.000000	64.173	-54.5335
167.500000	64.063	-54.6706
170.000000	63.957	-54.8022
172.500000	63.857	-54.9210
175.000000	63.764	-55.0276
177.500000	63.678	-55.1346
180.000000	63.591	-55.2492
182.500000	63.492	-55.3551
185.000000	63.376	-55.4436
187.500000	63.246	-55.5431
190.000000	63.114	-55.6698
192.500000	62.992	-55.8043
195.000000	62.887	-55.9305
197.500000	62.800	-56.0557
200.000000	62.728	-56.1973
203.000000	62.656	-56.3831
206.000000	62.595	-56.5526
209.000000	62.541	-56.7053
212.000000	62.488	-56.8609
214.000000	62.453	-56.9693
218.000000	62.379	-57.1981
220.000000	62.339	-57.3078
224.000000	62.253	-57.4937
227.000000	62.187	-57.6046
230.000000	62.121	-57.7044
233.000000	62.054	-57.8075
236.000000	61.985	-57.9246
240.000000	61.893	-58.0911
243.000000	61.829	-58.2209
247.000000	61.747	-58.4303
250.000000	61.689	-58.6034
254.000000	61.620	-58.7937
258.000000	61.563	-58.9255
262.000000	61.511	-59.0177
265.000000	61.466	-59.0874
269.000000	61.398	-59.2383
272.000000	61.342	-59.3990
276.000000	61.272	-59.6337
280.000000	61.214	-59.8630
285.000000	61.147	-60.1606
290.000000	61.072	-60.5006
295.000000	60.995	-60.8658
300.000000	60.918	-61.2151
304.000000	60.853	-61.4781
307.000000	60.803	-61.6719
311.000000	60.740	-61.9396
315.000000	60.682	-62.2313
320.000000	60.611	-62.5972
325.000000	60.538	-62.9169
330.000000	60.466	-63.1791
335.000000	60.400	-63.4424
340.000000	60.344	-63.7910
345.000000	60.298	-64.1977
350.000000	60.246	-64.6059
355.000000	60.175	-64.9724
360.000000	60.090	-65.2554
365.000000	60.009	-65.4676
370.000000	59.941	-65.6474
375.000000	59.879	-65.8113
382.000000	59.786	-66.0266
387.000000	59.715	-66.2029
395.000000	59.610	-66.4849
400.000000	59.549	-66.6057
406.000000	59.483	-66.7381
412.000000	59.421	-66.9034
418.000000	59.362	-67.0871
425.000000	59.297	-67.3148
431.000000	59.237	-67.5198
437.000000	59.171	-67.7194
444.000000	59.097	-67.9180
450.000000	59.042	-68.0357
455.000000	59.004	-68.0881
462.000000	58.961	-68.1066
468.000000	58.931	-68.0966
475.000000	58.898	-68.0785
482.000000	58.865	-68.0744
487.000000	58.843	-68.1062
494.000000	58.818	-68.2089
500.000000	58.801	-68.3275
508.000000	58.785	-68.4934
515.000000	58.770	-68.6289
522.000000	58.752	-68.7654
530.000000	58.730	-68.9786
538.000000	58.709	-69.2687
545.000000	58.694	-69.5305
552.000000	58.683	-69.7563
560.000000	58.676	-69.9666
570.000000	58.670	-70.1935
580.000000	58.669	-70.4538
590.000000	58.675	-70.7037
600.000000	58.686	-70.8998
608.000000	58.692	-71.0622
615.000000	58.695	-71.2120
622.000000	58.696	-71.3655
630.000000	58.699	-71.5518
640.000000	58.706	-71.7967
650.000000	58.716	-72.0230
660.000000	58.724	-72.2407
670.000000	58.732	-72.5017
680.000000	58.748	-72.7918
690.000000	58.772	-73.0884
700.000000	58.793	-73.4158
710.000000	58.806	-73.7899
720.000000	58.810	-74.1788
730.000000	58.817	-74.5316
740.000000	58.838	-74.8402
750.000000	58.869	-75.1276
762.000000	58.901	-75.4959
775.000000	58.929	-75.9419
788.000000	58.951	-76.4120
800.000000	58.968	-76.8772
812.000000	58.988	-77.3491
825.000000	59.024	-77.8122
838.000000	59.076	-78.1639
850.000000	59.130	-78.4013
862.000000	59.189	-78.6288
875.000000	59.258	-78.9080
885.000000	59.309	-79.1443
900.000000	59.380	-79.5392
912.000000	59.435	-79.8639
925.000000	59.495	-80.1979
938.000000	59.554	-80.4962
950.000000	59.614	-80.7214
962.000000	59.681	-80.8848
975.000000	59.759	-81.0056
988.000000	59.838	-81.1205
1000.000000	59.910	-81.2593
1015.000000	59.998	-81.4913
1030.000000	60.091	-81.7482
1044.000000	60.182	-81.9642
1060.000000	60.292	-82.1746
1075.000000	60.400	-82.3696
1090.000000	60.508	-82.6199
1106.000000	60.618	-83.0108
1120.000000	60.708	-83.4849
1138.000000	60.819	-84.3135
1150.000000	60.893	-85.0130
1172.000000	61.030	-86.5002
1180.000000	61.081	-87.0691
1206.000000	61.242	-88.9242
1220.000000	61.334	-89.8886
1241.000000	61.489	-91.2402
1250.000000	61.564	-91.7762
1265.000000	61.696	-92.6161
1280.000000	61.833	-93.4230
1315.000000	62.119	-95.3033
1320.000000	62.152	-95.5646
1340.000000	62.251	-96.5614
1360.000000	62.303	-97.4574
1380.000000	62.324	-98.2481
1400.000000	62.337	-98.9786
1430.000000	62.376	-100.1259
1450.000000	62.424	-100.9973
1475.000000	62.510	-102.1650
1500.000000	62.625	-103.3236
1525.000000	62.768	-104.4167
1550.000000	62.919	-105.4607
1575.000000	63.064	-106.5145
1600.000000	63.205	-107.5779
1625.000000	63.347	-108.6294
1650.000000	63.491	-109.6788
1675.000000	63.633	-110.7611
1700.000000	63.765	-111.9176
1725.000000	63.888	-113.1891
1750.000000	64.010	-114.5727
1775.000000	64.132	-116.0460
1800.000000	64.249	-117.5610
1825.000000	64.362	-119.0230
1850.000000	64.478	-120.3463
1875.000000	64.599	-121.5149
1900.000000	64.716	-122.5827
1925.000000	64.827	-123.6094
1950.000000	64.932	-124.6279
1975.000000	65.036	-125.6392
2000.000000	65.138	-126.6245
2030.000000	65.260	-127.7697
2060.000000	65.380	-128.9081
2090.000000	65.501	-130.0824
2120.000000	65.619	-131.3374
2140.000000	65.695	-132.2311
2180.000000	65.842	-134.1424
2200.000000	65.916	-135.1367
2240.000000	66.060	-137.0959
2270.000000	66.171	-138.4010
2300.000000	66.288	-139.4541
2330.000000	66.408	-140.2622
2360.000000	66.525	-140.9140
2400.000000	66.677	-141.6729
2430.000000	66.788	-142.2202
2470.000000	66.938	-143.0145
2500.000000	67.051	-143.7172
2540.000000	67.199	-144.8361
2580.000000	67.342	-146.1521
2620.000000	67.482	-147.5321
2650.000000	67.587	-148.4701
2690.000000	67.727	-149.4882
2720.000000	67.831	-150.1002
2760.000000	67.969	-150.7667
2800.000000	68.108	-151.3189
2850.000000	68.276	-152.0415
2900.000000	68.436	-153.0111
2950.000000	68.588	-154.2517
3000.000000	68.730	-155.6203
3040.000000	68.837	-156.6900
3070.000000	68.912	-157.4359
3110.000000	69.001	-158.3185
3150.000000	69.083	-159.0338
3200.000000	69.181	-159.6739
3250.000000	69.267	-160.1225
3300.000000	69.332	-160.5229
3350.000000	69.375	-160.9142
3400.000000	69.397	-161.2342
3450.000000	69.402	-161.4238
3500.000000	69.390	-161.4949
3550.000000	69.358	-161.5189
3600.000000	69.306	-161.6216
3650.000000	69.237	-161.9776
3700.000000	69.154	-162.7433
3750.000000	69.056	-163.9784
3820.000000	68.903	-166.3059
3870.000000	68.791	-168.1516
3950.000000	68.600	-171.0409
4000.000000	68.471	-172.6020
4060.000000	68.311	-173.9917
4120.000000	68.146	-174.7543
4180.000000	67.975	-174.8958
4250.000000	67.778	-174.3212
4310.000000	67.620	-173.3657
4370.000000	67.478	-172.2807
4440.000000	67.337	-171.2016
4500.000000	67.244	-170.5561
4550.000000	67.191	-170.1403
4620.000000	67.156	-169.4718
4680.000000	67.162	-168.6282
4750.000000	67.201	-167.3364
4820.000000	67.257	-165.9491
4870.000000	67.301	-165.0567
4940.000000	67.364	-164.1224
5000.000000	67.412	-163.7494
5080.000000	67.454	-164.0283
5150.000000	67.460	-164.8949
5220.000000	67.445	-165.9777
5300.000000	67.398	-167.1235
5380.000000	67.298	-168.0839
5450.000000	67.152	-168.8301
5520.000000	66.949	-169.5875
5600.000000	66.654	-170.5763
5700.000000	66.207	-171.9116
5800.000000	65.713	-172.9427
5900.000000	65.209	-173.3860
6000.000000	64.710	-173.0692
6080.000000	64.319	-171.9179
6150.000000	63.987	-170.0548
6220.000000	63.668	-167.4605
6300.000000	63.319	-163.8635
6400.000000	62.909	-158.8226
6500.000000	62.540	-153.4039
6600.000000	62.218	-147.6574
6700.000000	61.953	-141.7268
6800.000000	61.753	-135.8082
6900.000000	61.615	-129.8818
7000.000000	61.531	-123.7070
7100.000000	61.501	-117.1831
7200.000000	61.529	-110.5125
7300.000000	61.626	-103.9080
7400.000000	61.808	-97.6450
7500.000000	62.078	-92.2435
7620.000000	62.509	-87.5066
7750.000000	63.082	-84.5635
7880.000000	63.728	-83.4061
8000.000000	64.372	-83.6093
8120.000000	65.064	-85.1366
8250.000000	65.859	-88.8899
8380.000000	66.655	-95.5854
8500.000000	67.293	-104.7915
8620.000000	67.720	-116.7413
8750.000000	67.807	-132.0308
8850.000000	67.548	-144.7287
9000.000000	66.619	-163.7092
9120.000000	65.487	-177.5019
9250.000000	64.003	169.8708
9380.000000	62.384	159.7944
9500.000000	60.872	152.5667
9620.000000	59.418	147.0698
9750.000000	57.958	142.7771
9880.000000	56.632	140.0165
10000.000000	55.519	138.6615
10150.000000	54.249	138.3887
10300.000000	53.089	139.7543
10440.000000	52.096	142.3476
10600.000000	51.058	146.0809
10750.000000	50.163	149.6808
10900.000000	49.337	153.1260
11060.000000	48.532	156.3081
11200.000000	47.882	158.4926
11380.000000	47.108	160.6493
11500.000000	46.635	161.8006
11720.000000	45.887	163.8228
11800.000000	45.656	164.5583
12060.000000	45.033	164.2124
12200.000000	44.758	158.3448
12410.000000	44.389	128.1927
12500.000000	44.235	102.0011
12650.000000	43.989	37.3679
12800.000000	43.768	-41.7192
13150.000000	43.321	-164.8352
13200.000000	43.259	-172.5421
13400.000000	43.038	170.6481
13600.000000	42.907	165.4869
13800.000000	42.926	164.2108
14000.000000	43.120	163.9446
14300.000000	43.769	164.5902
14500.000000	44.427	165.5935
14750.000000	45.527	167.2864
15000.000000	46.968	169.1229
15250.000000	48.684	169.4503
15500.000000	50.494	166.2245
15750.000000	52.117	157.6628
16000.000000	53.187	143.0763
16250.000000	53.412	124.8583
16500.000000	52.761	107.7253
16750.000000	51.506	94.8566
17000.000000	50.055	85.6720
17250.000000	48.783	78.0841
17500.000000	47.911	70.9497
17750.000000	47.445	65.1109
18000.000000	47.224	64.0018
18250.000000	47.039	73.5818
18500.000000	46.699	96.4905
18750.000000	46.111	105.3809
19000.000000	45.342	8.2969
19250.000000	44.551	34.9094
19500.000000	43.845	123.1588
19750.000000	43.229	55.9685
