* Measurement data measured by REW V5.20.13
* Source: Microphone (2- USB Audio Device), MICROPHONE (Master Volume), L, volume: 0.250. Timing signal peak level -29.3 dBFS, measurement signal peak level -28.7 dBFS
* Format: 256k Log Swept Sine, 1 sweep at -12.0 dBFS using an acoustic timing reference
* Dated: 10-May-2023 23:06:50
* REW Settings:
*  C-weighting compensation: Off
*  Target level: 75.0 dB
* Note: 
* Measurement: Soundcore P3i R
* Smoothing: 1/12 octave
* Frequency Step: 1/48 octave
* Start Frequency: 20.000 Hz
*
* Freq(Hz)	SPL(dB)	Phase(degrees)
20.000000	69.265	82.0605
20.299999	69.334	80.6514
20.600000	69.409	79.1782
20.900000	69.494	77.6483
21.200001	69.591	76.0629
21.400000	69.661	74.9762
21.799999	69.809	72.7515
22.000000	69.884	71.6320
22.400000	70.034	69.4353
22.700001	70.143	67.8794
23.000000	70.250	66.4484
23.299999	70.356	65.1619
23.600000	70.464	64.0199
24.000000	70.610	62.6983
24.299999	70.721	61.8233
24.700001	70.867	60.7590
25.000000	70.971	60.0032
25.400000	71.097	59.0212
25.799999	71.201	58.0572
26.200001	71.283	57.1191
26.500000	71.332	56.4381
26.900000	71.385	55.5546
27.200001	71.419	54.8936
27.600000	71.463	53.9819
28.000000	71.504	53.0013
28.500000	71.552	51.6615
29.000000	71.594	50.2295
29.500000	71.635	48.7643
30.000000	71.681	47.3114
30.400000	71.726	46.1699
30.700001	71.764	45.3274
31.100000	71.818	44.2278
31.500000	71.876	43.1661
32.000000	71.950	41.9144
32.500000	72.026	40.7594
33.000000	72.104	39.6832
33.500000	72.179	38.6470
34.000000	72.246	37.6201
34.500000	72.299	36.6017
35.000000	72.339	35.6067
35.500000	72.368	34.6382
36.000000	72.393	33.6773
36.500000	72.417	32.6995
37.000000	72.439	31.6913
37.500000	72.459	30.6534
38.200001	72.483	29.1628
38.700001	72.496	28.0851
39.500000	72.509	26.3929
40.000000	72.515	25.3867
40.599998	72.522	24.2397
41.200001	72.531	23.1398
41.799999	72.539	22.0686
42.500000	72.544	20.8500
43.099998	72.543	19.8280
43.700001	72.536	18.8127
44.400002	72.523	17.6268
45.000000	72.505	16.6154
45.500000	72.487	15.7824
46.200001	72.459	14.6343
46.799999	72.433	13.6708
47.500000	72.403	12.5782
48.200001	72.374	11.5163
48.700001	72.354	10.7697
49.400002	72.320	9.7409
50.000000	72.281	8.8854
50.799999	72.215	7.7917
51.500000	72.150	6.8635
52.200001	72.081	5.9459
53.000000	72.002	4.9140
53.799999	71.922	3.9135
54.500000	71.850	3.0756
55.200001	71.775	2.2929
56.000000	71.687	1.4883
57.000000	71.580	0.6008
58.000000	71.478	-0.2275
59.000000	71.377	-1.0673
60.000000	71.270	-1.9353
60.799999	71.177	-2.6255
61.500000	71.093	-3.2085
62.200001	71.007	-3.7592
63.000000	70.908	-4.3353
64.000000	70.790	-4.9763
65.000000	70.677	-5.5573
66.000000	70.569	-6.0996
67.000000	70.463	-6.6236
68.000000	70.354	-7.1459
69.000000	70.239	-7.6453
70.000000	70.122	-8.0918
71.000000	70.009	-8.4944
72.000000	69.904	-8.8804
73.000000	69.802	-9.2608
74.000000	69.699	-9.6276
75.000000	69.594	-9.9593
76.199997	69.467	-10.3028
77.500000	69.332	-10.6352
78.800003	69.197	-10.9375
80.000000	69.072	-11.1817
81.199997	68.949	-11.4002
82.500000	68.821	-11.6294
83.800003	68.698	-11.8650
85.000000	68.587	-12.0845
86.199997	68.476	-12.2878
87.500000	68.355	-12.4638
88.500000	68.260	-12.5578
90.000000	68.119	-12.6416
91.199997	68.007	-12.6742
92.500000	67.889	-12.6850
93.800003	67.773	-12.6855
95.000000	67.667	-12.6884
96.199997	67.560	-12.6947
97.500000	67.442	-12.7016
98.800003	67.324	-12.7066
100.000000	67.219	-12.7142
101.500000	67.095	-12.7386
103.000000	66.979	-12.7784
104.400002	66.871	-12.8101
106.000000	66.744	-12.8182
107.500000	66.620	-12.8003
109.000000	66.489	-12.7605
110.599998	66.343	-12.6863
112.000000	66.213	-12.5894
113.800003	66.051	-12.4306
115.000000	65.947	-12.3165
117.199997	65.760	-12.1011
118.000000	65.692	-12.0155
120.599998	65.478	-11.7179
122.000000	65.367	-11.5605
124.099998	65.207	-11.3107
125.000000	65.142	-11.1945
126.500000	65.036	-10.9921
128.000000	64.931	-10.7719
131.500000	64.689	-10.2489
132.000000	64.654	-10.1827
134.000000	64.507	-9.9032
136.000000	64.359	-9.5619
138.000000	64.204	-9.1716
140.000000	64.032	-8.7210
143.000000	63.757	-7.9376
145.000000	63.579	-7.4050
147.500000	63.372	-6.7310
150.000000	63.180	-5.9821
152.500000	62.995	-5.0590
155.000000	62.825	-3.9401
157.500000	62.669	-2.7059
160.000000	62.524	-1.4299
162.500000	62.394	-0.2147
165.000000	62.275	0.8862
167.500000	62.158	1.9601
170.000000	62.037	3.0896
172.500000	61.912	4.2632
175.000000	61.784	5.4280
177.500000	61.657	6.5507
180.000000	61.523	7.6494
182.500000	61.376	8.7467
185.000000	61.215	9.8339
187.500000	61.049	10.9027
190.000000	60.888	11.9801
192.500000	60.738	13.1003
195.000000	60.597	14.2594
197.500000	60.463	15.4390
200.000000	60.338	16.6477
203.000000	60.202	18.1679
206.000000	60.087	19.7648
209.000000	59.990	21.4078
212.000000	59.901	23.0701
214.000000	59.841	24.1821
218.000000	59.712	26.4160
220.000000	59.640	27.5343
224.000000	59.484	29.7228
227.000000	59.359	31.3015
230.000000	59.235	32.8604
233.000000	59.112	34.4446
236.000000	58.991	36.0756
240.000000	58.836	38.3174
243.000000	58.725	40.0512
247.000000	58.580	42.4395
250.000000	58.475	44.2699
254.000000	58.341	46.7374
258.000000	58.213	49.2047
262.000000	58.090	51.6102
265.000000	58.001	53.3606
269.000000	57.891	55.6743
272.000000	57.814	57.4326
276.000000	57.717	59.8343
280.000000	57.625	62.2894
285.000000	57.511	65.3592
290.000000	57.397	68.3663
295.000000	57.281	71.3276
300.000000	57.161	74.3209
304.000000	57.069	76.7512
307.000000	57.003	78.5796
311.000000	56.919	81.0223
315.000000	56.841	83.4858
320.000000	56.754	86.5880
325.000000	56.677	89.6569
330.000000	56.603	92.6560
335.000000	56.538	95.6311
340.000000	56.489	98.6687
345.000000	56.449	101.8005
350.000000	56.412	105.0087
355.000000	56.382	108.2668
360.000000	56.369	111.5226
365.000000	56.369	114.7195
370.000000	56.374	117.8494
375.000000	56.380	120.9351
382.000000	56.398	125.2307
387.000000	56.427	128.2467
395.000000	56.495	132.8419
400.000000	56.541	135.5495
406.000000	56.588	138.6648
412.000000	56.618	141.6641
418.000000	56.636	144.5396
425.000000	56.656	147.6948
431.000000	56.685	150.2710
437.000000	56.727	152.8011
444.000000	56.779	155.7088
450.000000	56.819	158.1743
455.000000	56.851	160.2324
462.000000	56.905	163.1179
468.000000	56.958	165.5728
475.000000	57.017	168.3858
482.000000	57.069	171.1432
487.000000	57.101	173.0997
494.000000	57.143	175.8494
500.000000	57.181	178.2228
508.000000	57.241	-178.6188
515.000000	57.300	-175.8799
522.000000	57.362	-173.1316
530.000000	57.428	-169.9671
538.000000	57.487	-166.8139
545.000000	57.536	-164.0898
552.000000	57.586	-161.4133
560.000000	57.640	-158.4008
570.000000	57.695	-154.6680
580.000000	57.735	-150.9509
590.000000	57.764	-147.2775
600.000000	57.781	-143.6683
608.000000	57.792	-140.7657
615.000000	57.805	-138.1709
622.000000	57.822	-135.5361
630.000000	57.844	-132.5284
640.000000	57.865	-128.8004
650.000000	57.880	-125.0807
660.000000	57.902	-121.3830
670.000000	57.938	-117.6803
680.000000	57.987	-113.9033
690.000000	58.040	-110.0522
700.000000	58.081	-106.1574
710.000000	58.111	-102.2824
720.000000	58.136	-98.4856
730.000000	58.163	-94.7448
740.000000	58.198	-91.0148
750.000000	58.238	-87.2865
762.000000	58.290	-82.7789
775.000000	58.350	-77.7595
788.000000	58.417	-72.6475
800.000000	58.486	-67.9933
812.000000	58.564	-63.4407
825.000000	58.659	-58.5797
838.000000	58.758	-53.7793
850.000000	58.853	-49.4168
862.000000	58.953	-45.1178
875.000000	59.072	-40.5078
885.000000	59.170	-36.9594
900.000000	59.332	-31.5868
912.000000	59.472	-27.2604
925.000000	59.629	-22.5710
938.000000	59.784	-17.9031
950.000000	59.926	-13.6575
962.000000	60.074	-9.4844
975.000000	60.245	-5.0368
988.000000	60.426	-0.6912
1000.000000	60.596	3.2318
1015.000000	60.806	8.0630
1030.000000	61.014	12.8420
1044.000000	61.208	17.2498
1060.000000	61.427	22.1792
1075.000000	61.631	26.6577
1090.000000	61.837	31.0136
1106.000000	62.058	35.5472
1120.000000	62.250	39.4304
1138.000000	62.489	44.3467
1150.000000	62.642	47.5970
1172.000000	62.915	53.4988
1180.000000	63.014	55.6262
1206.000000	63.342	62.5133
1220.000000	63.521	66.2402
1241.000000	63.801	71.8807
1250.000000	63.924	74.3069
1265.000000	64.130	78.3405
1280.000000	64.332	82.3403
1315.000000	64.753	91.4680
1320.000000	64.803	92.7463
1340.000000	64.975	97.8206
1360.000000	65.098	102.9089
1380.000000	65.189	108.0938
1400.000000	65.269	113.3619
1430.000000	65.403	121.2994
1450.000000	65.517	126.5897
1475.000000	65.688	133.2601
1500.000000	65.877	140.0076
1525.000000	66.077	146.7755
1550.000000	66.291	153.5540
1575.000000	66.512	160.3549
1600.000000	66.726	167.1425
1625.000000	66.925	173.8094
1650.000000	67.113	-179.7102
1675.000000	67.305	-173.3885
1700.000000	67.507	-167.1701
1725.000000	67.708	-161.0226
1750.000000	67.907	-154.9046
1775.000000	68.103	-148.8059
1800.000000	68.295	-142.7828
1825.000000	68.482	-136.8844
1850.000000	68.662	-131.1218
1875.000000	68.835	-125.4855
1900.000000	69.000	-119.9514
1925.000000	69.159	-114.4976
1950.000000	69.310	-109.1031
1975.000000	69.453	-103.7419
2000.000000	69.591	-98.3969
2030.000000	69.747	-92.0071
2060.000000	69.886	-85.6782
2090.000000	70.002	-79.4194
2120.000000	70.097	-73.2056
2140.000000	70.150	-69.0824
2180.000000	70.236	-60.9239
2200.000000	70.268	-56.9342
2240.000000	70.298	-49.2515
2270.000000	70.285	-43.7921
2300.000000	70.250	-38.5451
2330.000000	70.201	-33.4246
2360.000000	70.137	-28.3695
2400.000000	70.019	-21.6853
2430.000000	69.902	-16.6858
2470.000000	69.717	-9.9040
2500.000000	69.562	-4.5978
2540.000000	69.343	2.9274
2580.000000	69.115	10.9836
2620.000000	68.878	19.3811
2650.000000	68.694	25.7331
2690.000000	68.439	34.1259
2720.000000	68.243	40.3426
2760.000000	67.983	48.5950
2800.000000	67.726	56.9443
2850.000000	67.415	67.7107
2900.000000	67.116	78.9482
2950.000000	66.830	90.6161
3000.000000	66.559	102.6360
3040.000000	66.359	112.5023
3070.000000	66.221	120.0369
3110.000000	66.056	130.2170
3150.000000	65.914	140.4951
3200.000000	65.761	153.3406
3250.000000	65.614	165.9886
3300.000000	65.464	178.3738
3350.000000	65.322	-169.4520
3400.000000	65.188	-157.3940
3450.000000	65.065	-145.2490
3500.000000	64.966	-132.8019
3550.000000	64.895	-120.0514
3600.000000	64.844	-107.1774
3650.000000	64.809	-94.3164
3700.000000	64.793	-81.5266
3750.000000	64.793	-68.8564
3820.000000	64.819	-51.2787
3870.000000	64.850	-38.7170
3950.000000	64.921	-18.4412
4000.000000	64.969	-5.6855
4060.000000	65.022	9.5787
4120.000000	65.073	24.6121
4180.000000	65.125	39.3424
4250.000000	65.192	56.2815
4310.000000	65.261	70.6678
4370.000000	65.346	84.9250
4440.000000	65.464	101.3220
4500.000000	65.587	115.1560
4550.000000	65.710	126.5769
4620.000000	65.909	142.4907
4680.000000	66.095	156.1041
4750.000000	66.323	171.8893
4820.000000	66.552	-172.6130
4870.000000	66.713	-161.7822
4940.000000	66.935	-146.8945
5000.000000	67.122	-134.3044
5080.000000	67.365	-117.7324
5150.000000	67.564	-103.5364
5220.000000	67.740	-89.7688
5300.000000	67.901	-74.5311
5380.000000	68.025	-59.4543
5450.000000	68.109	-46.0912
5520.000000	68.165	-32.5120
5600.000000	68.188	-16.8533
5700.000000	68.149	2.6049
5800.000000	68.046	21.7509
5900.000000	67.901	40.8877
6000.000000	67.726	60.3138
6080.000000	67.565	76.0645
6150.000000	67.414	89.9670
6220.000000	67.258	103.9570
6300.000000	67.083	120.0303
6400.000000	66.884	140.2614
6500.000000	66.720	160.7819
6600.000000	66.610	-178.1935
6700.000000	66.573	-156.6704
6800.000000	66.610	-135.1145
6900.000000	66.710	-114.2546
7000.000000	66.871	-94.5989
7100.000000	67.120	-76.1687
7200.000000	67.486	-58.8849
7300.000000	67.971	-42.8512
7400.000000	68.575	-27.9719
7500.000000	69.312	-13.8127
7620.000000	70.360	2.5979
7750.000000	71.608	19.2617
7880.000000	72.825	33.6765
8000.000000	73.765	43.7076
8120.000000	74.369	49.9271
8250.000000	74.486	53.4651
8380.000000	73.961	56.6460
8500.000000	72.939	61.9351
8620.000000	71.524	70.7617
8750.000000	69.735	84.4424
8850.000000	68.301	97.5618
9000.000000	66.224	120.5598
9120.000000	64.701	141.0383
9250.000000	63.220	164.7288
9380.000000	61.914	-170.4053
9500.000000	60.854	-146.7976
9620.000000	59.922	-122.9780
9750.000000	59.038	-97.4084
9880.000000	58.260	-72.4417
10000.000000	57.620	-49.9099
10150.000000	56.914	-21.9292
10300.000000	56.307	6.5491
10440.000000	55.828	33.7993
10600.000000	55.382	65.2986
10750.000000	55.058	94.6304
10900.000000	54.815	123.5139
11060.000000	54.637	153.9463
11200.000000	54.541	-179.4727
11380.000000	54.493	-144.9463
11500.000000	54.514	-121.5859
11720.000000	54.679	-78.5881
11800.000000	54.776	-63.2324
12060.000000	55.182	-15.4500
12200.000000	55.447	9.0837
12410.000000	55.890	44.9429
12500.000000	56.090	60.0840
12650.000000	56.420	85.2419
12800.000000	56.739	110.8118
13150.000000	57.460	174.7542
13200.000000	57.568	-175.6655
13400.000000	58.058	-137.0540
13600.000000	58.738	-99.2551
13800.000000	59.681	-64.0745
14000.000000	60.808	-33.4163
14300.000000	62.340	1.0474
14500.000000	62.835	16.7212
14750.000000	62.471	32.8350
15000.000000	60.978	52.1536
15250.000000	58.654	78.6423
15500.000000	55.899	111.5430
15750.000000	53.040	147.9819
16000.000000	50.336	-177.4143
16250.000000	48.031	-156.7727
16500.000000	46.272	-169.2432
16750.000000	45.062	139.9463
17000.000000	44.358	83.5286
17250.000000	43.987	44.9617
17500.000000	43.640	1.3643
17750.000000	43.125	-70.8975
18000.000000	42.457	-160.5403
18250.000000	41.770	105.5750
18500.000000	41.228	3.2461
18750.000000	40.937	-108.4121
19000.000000	40.875	114.8220
19250.000000	40.962	-67.9199
19500.000000	41.103	69.4370
19750.000000	41.213	-152.1489
