* Measurement data measured by REW V5.30 beta 2
* Source: Microphone (2- USB Audio Device), MICROPHONE (Master Volume), R, volume: 0.250
* Format: 256k Log Swept Sine, 1 sweep at -12.0 dBFS with no timing reference
* Dated: 19-Nov-2023 23:23:22
* REW Settings:
*  C-weighting compensation: Off
*  Target level: 75.0 dB
* Note: 
* Measurement: SoundPEATS Air4 ANC R
* Smoothing: 1/12 octave
* Frequency Step: 1/48 octave
* Start Frequency: 20.300 Hz
*
* Freq(Hz)	SPL(dB)	Phase(degrees)
20.299999	54.182	-9.2543
20.600000	54.654	-10.0929
20.900000	55.127	-10.6971
21.200001	55.522	-10.8600
21.400000	55.750	-10.7649
21.799999	56.164	-10.4056
22.000000	56.361	-10.2896
22.400000	56.728	-10.3635
22.700001	56.956	-10.5915
23.000000	57.131	-10.7148
23.299999	57.262	-10.4607
23.600000	57.381	-9.6357
24.000000	57.589	-7.6470
24.299999	57.828	-5.7687
24.700001	58.274	-3.4081
25.000000	58.678	-2.1221
25.400000	59.250	-1.2731
25.799999	59.800	-1.2391
26.200001	60.291	-1.5473
26.500000	60.618	-1.6619
26.900000	61.028	-1.2866
27.200001	61.348	-0.5089
27.600000	61.835	1.0043
28.000000	62.408	2.5143
28.500000	63.172	3.4639
29.000000	63.852	2.9928
29.500000	64.363	1.6111
30.000000	64.739	0.1786
30.400000	65.019	-0.6302
30.700001	65.252	-1.0313
31.100000	65.612	-1.4498
31.500000	66.013	-1.9389
32.000000	66.521	-2.8139
32.500000	66.995	-3.9121
33.000000	67.431	-5.0587
33.500000	67.856	-6.1521
34.000000	68.291	-7.1917
34.500000	68.741	-8.2155
35.000000	69.201	-9.2589
35.500000	69.659	-10.3485
36.000000	70.107	-11.4982
36.500000	70.539	-12.7002
37.000000	70.956	-13.9328
37.500000	71.362	-15.1766
38.200001	71.912	-16.9202
38.700001	72.285	-18.1614
39.500000	72.843	-20.1412
40.000000	73.172	-21.3962
40.599998	73.555	-22.9617
41.200001	73.941	-24.6328
41.799999	74.332	-26.4290
42.500000	74.779	-28.6343
43.099998	75.143	-30.5207
43.700001	75.490	-32.3485
44.400002	75.884	-34.4817
45.000000	76.212	-36.4236
45.500000	76.472	-38.1386
46.200001	76.816	-40.6035
46.799999	77.100	-42.7072
47.500000	77.418	-45.1451
48.200001	77.713	-47.5775
48.700001	77.908	-49.2963
49.400002	78.164	-51.6624
50.000000	78.376	-53.6717
50.799999	78.649	-56.3707
51.500000	78.876	-58.7678
52.200001	79.083	-61.1870
53.000000	79.290	-63.9348
53.799999	79.469	-66.6149
54.500000	79.612	-68.8971
55.200001	79.751	-71.1403
56.000000	79.901	-73.6826
57.000000	80.069	-76.8259
58.000000	80.207	-79.8519
59.000000	80.318	-82.7390
60.000000	80.402	-85.5761
60.799999	80.448	-87.8298
61.500000	80.478	-89.7696
62.200001	80.503	-91.6604
63.000000	80.525	-93.7457
64.000000	80.539	-96.2253
65.000000	80.538	-98.5773
66.000000	80.529	-100.8317
67.000000	80.514	-102.9917
68.000000	80.492	-105.0493
69.000000	80.457	-107.0201
70.000000	80.405	-108.9374
71.000000	80.338	-110.8145
72.000000	80.261	-112.6256
73.000000	80.180	-114.3242
74.000000	80.095	-115.8704
75.000000	80.010	-117.2681
76.199997	79.912	-118.8270
77.500000	79.810	-120.4547
78.800003	79.698	-121.9736
80.000000	79.584	-123.2164
81.199997	79.470	-124.3540
82.500000	79.351	-125.5111
83.800003	79.238	-126.5967
85.000000	79.136	-127.5237
86.199997	79.034	-128.3686
87.500000	78.923	-129.2171
88.500000	78.835	-129.8432
90.000000	78.706	-130.7189
91.199997	78.612	-131.3448
92.500000	78.520	-131.9396
93.800003	78.431	-132.4563
95.000000	78.346	-132.8758
96.199997	78.259	-133.2592
97.500000	78.167	-133.6612
98.800003	78.077	-134.0605
100.000000	77.995	-134.4070
101.500000	77.896	-134.7606
103.000000	77.806	-135.0508
104.400002	77.732	-135.3167
106.000000	77.653	-135.5656
107.500000	77.580	-135.7132
109.000000	77.510	-135.8740
110.599998	77.437	-136.1163
112.000000	77.372	-136.3328
113.800003	77.288	-136.5222
115.000000	77.235	-136.5957
117.199997	77.141	-136.6979
118.000000	77.108	-136.7395
120.599998	76.997	-136.8833
122.000000	76.935	-136.9460
124.099998	76.844	-137.0262
125.000000	76.806	-137.0669
126.500000	76.743	-137.1615
128.000000	76.681	-137.2845
131.500000	76.530	-137.5916
132.000000	76.507	-137.6215
134.000000	76.415	-137.6523
136.000000	76.323	-137.5847
138.000000	76.225	-137.5324
140.000000	76.125	-137.5004
143.000000	75.980	-137.4380
145.000000	75.888	-137.3454
147.500000	75.771	-137.1203
150.000000	75.657	-136.8320
152.500000	75.539	-136.5074
155.000000	75.412	-136.1298
157.500000	75.282	-135.6907
160.000000	75.156	-135.2280
162.500000	75.036	-134.7313
165.000000	74.920	-134.1719
167.500000	74.810	-133.5172
170.000000	74.704	-132.7455
172.500000	74.598	-131.8965
175.000000	74.490	-131.0154
177.500000	74.380	-130.1477
180.000000	74.278	-129.2520
182.500000	74.183	-128.2163
185.000000	74.084	-127.0716
187.500000	73.974	-125.9244
190.000000	73.864	-124.7964
192.500000	73.767	-123.6708
195.000000	73.688	-122.5236
197.500000	73.631	-121.3262
200.000000	73.596	-120.0778
203.000000	73.586	-118.5308
206.000000	73.603	-116.9735
209.000000	73.636	-115.4650
212.000000	73.667	-114.0096
214.000000	73.682	-113.0491
218.000000	73.706	-111.1654
220.000000	73.718	-110.2295
224.000000	73.744	-108.3601
227.000000	73.761	-107.0306
230.000000	73.777	-105.7888
233.000000	73.790	-104.6108
236.000000	73.802	-103.4784
240.000000	73.820	-102.0147
243.000000	73.836	-100.9313
247.000000	73.859	-99.4958
250.000000	73.876	-98.4383
254.000000	73.892	-97.0721
258.000000	73.897	-95.7495
262.000000	73.889	-94.4364
265.000000	73.878	-93.3886
269.000000	73.861	-91.9307
272.000000	73.847	-90.8543
276.000000	73.827	-89.4452
280.000000	73.805	-88.0242
285.000000	73.774	-86.2190
290.000000	73.732	-84.3475
295.000000	73.686	-82.4289
300.000000	73.635	-80.5416
304.000000	73.589	-79.0671
307.000000	73.552	-77.9726
311.000000	73.505	-76.5262
315.000000	73.465	-75.1055
320.000000	73.429	-73.3973
325.000000	73.402	-71.7361
330.000000	73.374	-70.0858
335.000000	73.346	-68.4624
340.000000	73.326	-66.9216
345.000000	73.319	-65.4268
350.000000	73.319	-63.9252
355.000000	73.314	-62.4147
360.000000	73.293	-60.9121
365.000000	73.263	-59.4001
370.000000	73.228	-57.8770
375.000000	73.193	-56.3509
382.000000	73.141	-54.1747
387.000000	73.102	-52.5531
395.000000	73.033	-49.8767
400.000000	72.982	-48.1836
406.000000	72.912	-46.0668
412.000000	72.839	-43.8603
418.000000	72.768	-41.5621
425.000000	72.693	-38.8073
431.000000	72.631	-36.4636
437.000000	72.569	-34.1227
444.000000	72.498	-31.3625
450.000000	72.439	-28.9414
455.000000	72.395	-26.8723
462.000000	72.342	-23.9462
468.000000	72.302	-21.5018
475.000000	72.260	-18.7775
482.000000	72.226	-16.1220
487.000000	72.211	-14.2315
494.000000	72.207	-11.6098
500.000000	72.218	-9.3988
508.000000	72.245	-6.5014
515.000000	72.272	-4.0562
522.000000	72.299	-1.7361
530.000000	72.330	0.8144
538.000000	72.362	3.3812
545.000000	72.402	5.6770
552.000000	72.462	7.9749
560.000000	72.551	10.5563
570.000000	72.675	13.7315
580.000000	72.809	16.8237
590.000000	72.956	19.7403
600.000000	73.107	22.5709
608.000000	73.223	24.8426
615.000000	73.322	26.7852
622.000000	73.423	28.6756
630.000000	73.543	30.8065
640.000000	73.705	33.4252
650.000000	73.881	35.9452
660.000000	74.063	38.3209
670.000000	74.238	40.5147
680.000000	74.391	42.5236
690.000000	74.521	44.4354
700.000000	74.639	46.3637
710.000000	74.756	48.3637
720.000000	74.873	50.4322
730.000000	74.986	52.5866
740.000000	75.101	54.8639
750.000000	75.225	57.2596
762.000000	75.396	60.2179
775.000000	75.612	63.4450
788.000000	75.854	66.6216
800.000000	76.092	69.4454
812.000000	76.337	72.1328
825.000000	76.602	74.9148
838.000000	76.854	77.6096
850.000000	77.074	79.9919
862.000000	77.287	82.2442
875.000000	77.507	84.5476
885.000000	77.669	86.2525
900.000000	77.899	88.7379
912.000000	78.072	90.6814
925.000000	78.245	92.7653
938.000000	78.403	94.8173
950.000000	78.543	96.6657
962.000000	78.683	98.4699
975.000000	78.837	100.3454
988.000000	78.990	102.0844
1000.000000	79.125	103.5387
1015.000000	79.288	105.1776
1030.000000	79.444	106.7225
1044.000000	79.585	108.1647
1060.000000	79.742	109.8382
1075.000000	79.891	111.4468
1090.000000	80.041	113.0738
1106.000000	80.198	114.7580
1120.000000	80.331	116.1589
1138.000000	80.494	117.8471
1150.000000	80.598	118.9120
1172.000000	80.787	120.8110
1180.000000	80.857	121.4934
1206.000000	81.087	123.6704
1220.000000	81.208	124.8008
1241.000000	81.379	126.3894
1250.000000	81.448	127.0280
1265.000000	81.555	128.0535
1280.000000	81.646	129.0584
1315.000000	81.773	131.4921
1320.000000	81.778	131.8578
1340.000000	81.757	133.3735
1360.000000	81.670	134.9682
1380.000000	81.530	136.5942
1400.000000	81.355	138.2084
1430.000000	81.071	140.6284
1450.000000	80.893	142.2666
1475.000000	80.686	144.3915
1500.000000	80.482	146.6511
1525.000000	80.277	149.0168
1550.000000	80.072	151.5281
1575.000000	79.866	154.2805
1600.000000	79.659	157.2766
1625.000000	79.443	160.3731
1650.000000	79.208	163.4091
1675.000000	78.961	166.4517
1700.000000	78.723	169.7108
1725.000000	78.497	173.3325
1750.000000	78.282	177.3942
1775.000000	78.074	-178.1697
1800.000000	77.873	-173.5138
1825.000000	77.681	-168.7504
1850.000000	77.509	-163.9366
1875.000000	77.358	-159.0916
1900.000000	77.221	-154.2480
1925.000000	77.095	-149.4272
1950.000000	76.982	-144.6130
1975.000000	76.889	-139.7796
2000.000000	76.819	-134.9157
2030.000000	76.766	-129.0798
2060.000000	76.745	-123.2063
2090.000000	76.759	-117.2563
2120.000000	76.811	-111.3462
2140.000000	76.863	-107.5415
2180.000000	76.998	-100.4438
2200.000000	77.079	-97.1206
2240.000000	77.278	-90.6725
2270.000000	77.465	-85.8983
2300.000000	77.685	-81.2390
2330.000000	77.926	-76.7945
2360.000000	78.173	-72.5894
2400.000000	78.506	-67.3215
2430.000000	78.757	-63.6232
2470.000000	79.092	-59.0762
2500.000000	79.338	-55.9928
2540.000000	79.656	-52.2708
2580.000000	79.960	-48.8874
2620.000000	80.235	-45.7816
2650.000000	80.420	-43.5507
2690.000000	80.649	-40.6175
2720.000000	80.801	-38.4747
2760.000000	80.968	-35.7562
2800.000000	81.094	-33.1253
2850.000000	81.209	-29.6404
2900.000000	81.278	-25.7838
2950.000000	81.299	-21.7322
3000.000000	81.274	-17.7599
3040.000000	81.224	-14.8107
3070.000000	81.173	-12.7395
3110.000000	81.093	-10.0928
3150.000000	81.007	-7.4929
3200.000000	80.898	-4.2385
3250.000000	80.788	-0.9265
3300.000000	80.675	2.5413
3350.000000	80.561	6.3220
3400.000000	80.448	10.5513
3450.000000	80.339	15.1796
3500.000000	80.234	20.0513
3550.000000	80.137	25.0268
3600.000000	80.052	30.0486
3650.000000	79.982	35.1620
3700.000000	79.939	40.4603
3750.000000	79.924	45.8906
3820.000000	79.943	53.2002
3870.000000	79.967	57.8518
3950.000000	80.002	64.1964
4000.000000	80.027	67.8395
4060.000000	80.067	72.3966
4120.000000	80.117	77.3354
4180.000000	80.174	82.5028
4250.000000	80.245	88.4772
4310.000000	80.314	93.3972
4370.000000	80.400	98.1495
4440.000000	80.532	103.5793
4500.000000	80.678	108.2094
4550.000000	80.826	112.0405
4620.000000	81.065	117.2365
4680.000000	81.287	121.5114
4750.000000	81.558	126.4255
4820.000000	81.836	131.3331
4870.000000	82.034	134.7537
4940.000000	82.306	139.1848
5000.000000	82.521	142.4583
5080.000000	82.763	146.0039
5150.000000	82.913	148.5259
5220.000000	82.996	150.7725
5300.000000	82.996	153.3259
5380.000000	82.905	156.1951
5450.000000	82.778	159.0834
5520.000000	82.628	162.2454
5600.000000	82.451	166.0610
5700.000000	82.264	171.1094
5800.000000	82.184	176.3917
5900.000000	82.257	-178.2639
6000.000000	82.490	-173.0123
6080.000000	82.790	-169.0444
6150.000000	83.123	-165.9580
6220.000000	83.498	-163.4520
6300.000000	83.944	-161.4774
6400.000000	84.471	-160.3684
6500.000000	84.907	-160.4208
6600.000000	85.213	-160.8734
6700.000000	85.397	-161.0000
6800.000000	85.496	-160.5000
6900.000000	85.544	-159.4255
7000.000000	85.577	-158.0975
7100.000000	85.621	-157.1146
7200.000000	85.695	-156.8207
7300.000000	85.817	-157.0687
7400.000000	85.984	-157.7739
7500.000000	86.166	-159.2032
7620.000000	86.332	-162.2809
7750.000000	86.318	-167.3135
7880.000000	85.968	-173.4878
8000.000000	85.286	-179.4998
8120.000000	84.278	174.6526
8250.000000	82.903	168.9124
8380.000000	81.361	164.2505
8500.000000	79.902	161.2222
8620.000000	78.487	159.4766
8750.000000	77.040	158.7694
8850.000000	75.995	158.9578
9000.000000	74.546	160.5024
9120.000000	73.492	162.7274
9250.000000	72.448	165.6059
9380.000000	71.490	168.0755
9500.000000	70.674	169.4542
9620.000000	69.932	170.0236
9750.000000	69.213	170.0989
9880.000000	68.571	170.0427
10000.000000	68.030	170.0895
10150.000000	67.408	170.3453
10300.000000	66.852	170.9484
10440.000000	66.389	172.1143
10600.000000	65.917	174.6550
10750.000000	65.513	178.1969
10900.000000	65.130	-177.6282
11060.000000	64.757	-172.5820
11200.000000	64.484	-167.7570
11380.000000	64.229	-162.1962
11500.000000	64.133	-159.6632
11720.000000	64.159	-158.0181
11800.000000	64.239	-158.2835
12060.000000	64.748	-161.4760
12200.000000	65.177	-164.1418
12410.000000	66.023	-168.7441
12500.000000	66.450	-171.0285
12650.000000	67.222	-175.7230
12800.000000	68.036	177.9746
13150.000000	69.786	155.6492
13200.000000	69.984	151.5634
13400.000000	70.545	133.4047
13600.000000	70.637	113.7595
13800.000000	70.170	94.2214
14000.000000	69.179	75.6887
14300.000000	67.140	51.1617
14500.000000	65.756	37.2064
14750.000000	64.286	21.8602
15000.000000	63.185	8.0226
15250.000000	62.346	-4.7061
15500.000000	61.551	-15.6625
15750.000000	60.710	-23.7598
16000.000000	59.962	-28.7109
16250.000000	59.537	-31.5985
16500.000000	59.588	-34.2301
16750.000000	60.017	-38.2366
17000.000000	60.594	-44.1104
17250.000000	61.093	-51.4175
17500.000000	61.324	-59.6306
17750.000000	61.195	-67.8639
18000.000000	60.734	-75.0411
18250.000000	60.089	-80.3073
18500.000000	59.461	-83.1357
18750.000000	59.007	-83.6937
19000.000000	58.739	-83.1409
19250.000000	58.562	-82.9375
19500.000000	58.398	-83.5781
19750.000000	58.217	-84.4477
20000.000000	58.064	-84.9694
