* Measurement data measured by REW V5.30.5
* Source: Microphone (4- USB Audio Device), MICROPHONE (Master Volume), R, volume: 0.250
* Format: 256k Log Swept Sine, 1 sweep at -12.0 dBFS with no timing reference
* Dated: 30-Jan-2024 15:17:03
* REW Settings:
*  C-weighting compensation: Off
*  Target level: 75.0 dB
* Note: 
* Measurement: Soundcore Liberty 4 NC R
* Smoothing: 1/12 octave
* Frequency Step: 1/48 octave
* Start Frequency: 20.300 Hz
*
* Freq(Hz)	SPL(dB)	Phase(degrees)
20.299999	70.639	16.3667
20.600000	70.778	15.4239
20.900000	70.954	14.2389
21.200001	71.141	12.9434
21.400000	71.265	12.0361
21.799999	71.502	10.1241
22.000000	71.612	9.1230
22.400000	71.810	7.0511
22.700001	71.940	5.4569
23.000000	72.055	3.8445
23.299999	72.159	2.2205
23.600000	72.254	0.5835
24.000000	72.372	-1.6342
24.299999	72.456	-3.3373
24.700001	72.565	-5.6770
25.000000	72.644	-7.4866
25.400000	72.750	-9.9645
25.799999	72.857	-12.4940
26.200001	72.971	-15.0405
26.500000	73.062	-16.9398
26.900000	73.191	-19.4333
27.200001	73.294	-21.2633
27.600000	73.433	-23.6414
28.000000	73.569	-25.9478
28.500000	73.725	-28.7384
29.000000	73.861	-31.4512
29.500000	73.980	-34.1338
30.000000	74.089	-36.8446
30.400000	74.176	-39.0577
30.700001	74.240	-40.7403
31.100000	74.326	-42.9914
31.500000	74.413	-45.2174
32.000000	74.522	-47.9215
32.500000	74.632	-50.5312
33.000000	74.739	-53.0793
33.500000	74.840	-55.6067
34.000000	74.933	-58.1353
34.500000	75.022	-60.6677
35.000000	75.112	-63.1968
35.500000	75.202	-65.7116
36.000000	75.290	-68.1992
36.500000	75.373	-70.6521
37.000000	75.450	-73.0738
37.500000	75.520	-75.4711
38.200001	75.608	-78.7782
38.700001	75.671	-81.0867
39.500000	75.782	-84.6891
40.000000	75.856	-86.9162
40.599998	75.943	-89.5949
41.200001	76.020	-92.2810
41.799999	76.091	-94.9592
42.500000	76.168	-98.0487
43.099998	76.233	-100.6431
43.700001	76.296	-103.1840
44.400002	76.368	-106.1247
45.000000	76.428	-108.6710
45.500000	76.476	-110.8136
46.200001	76.546	-113.8004
46.799999	76.607	-116.2970
47.500000	76.675	-119.0820
48.200001	76.735	-121.7276
48.700001	76.776	-123.5900
49.400002	76.837	-126.2899
50.000000	76.888	-128.7486
50.799999	76.949	-132.1230
51.500000	77.004	-134.9941
52.200001	77.064	-137.7326
53.000000	77.132	-140.7729
53.799999	77.186	-143.7962
54.500000	77.224	-146.4586
55.200001	77.261	-149.1472
56.000000	77.305	-152.2352
57.000000	77.361	-156.0586
58.000000	77.417	-159.8024
59.000000	77.477	-163.4932
60.000000	77.540	-167.1848
60.799999	77.586	-170.1478
61.500000	77.618	-172.7303
62.200001	77.644	-175.2864
63.000000	77.672	-178.1700
64.000000	77.709	178.2609
65.000000	77.745	174.6931
66.000000	77.777	171.1026
67.000000	77.806	167.5031
68.000000	77.834	163.9168
69.000000	77.862	160.3377
70.000000	77.891	156.7476
71.000000	77.917	153.1530
72.000000	77.933	149.5912
73.000000	77.938	146.0936
74.000000	77.935	142.6657
75.000000	77.930	139.2952
76.199997	77.916	135.2907
77.500000	77.886	130.9579
78.800003	77.852	126.6275
80.000000	77.826	122.6607
81.199997	77.803	118.7302
82.500000	77.771	114.4843
83.800003	77.727	110.2455
85.000000	77.676	106.3767
86.199997	77.620	102.5722
87.500000	77.550	98.5327
88.500000	77.491	95.4870
90.000000	77.400	90.9859
91.199997	77.329	87.4201
92.500000	77.250	83.5981
93.800003	77.164	79.8321
95.000000	77.082	76.4176
96.199997	76.999	73.0606
97.500000	76.905	69.4813
98.800003	76.805	65.9606
100.000000	76.710	62.7609
101.500000	76.594	58.7959
103.000000	76.475	54.8475
104.400002	76.357	51.2278
106.000000	76.215	47.2195
107.500000	76.084	43.5649
109.000000	75.960	39.9451
110.599998	75.837	36.0833
112.000000	75.730	32.7359
113.800003	75.581	28.5263
115.000000	75.478	25.7767
117.199997	75.302	20.8368
118.000000	75.242	19.0748
120.599998	75.044	13.4681
122.000000	74.938	10.4923
124.099998	74.785	6.0760
125.000000	74.720	4.2094
126.500000	74.611	1.1243
128.000000	74.504	-1.9219
131.500000	74.274	-8.8387
132.000000	74.242	-9.8168
134.000000	74.116	-13.7146
136.000000	73.993	-17.5753
138.000000	73.877	-21.3771
140.000000	73.766	-25.1178
143.000000	73.602	-30.7144
145.000000	73.497	-34.4261
147.500000	73.371	-38.9045
150.000000	73.251	-43.2297
152.500000	73.132	-47.5858
155.000000	73.017	-52.0205
157.500000	72.908	-56.4445
160.000000	72.803	-60.8280
162.500000	72.698	-65.1904
165.000000	72.596	-69.5233
167.500000	72.496	-73.8399
170.000000	72.398	-78.1784
172.500000	72.303	-82.5588
175.000000	72.207	-86.9594
177.500000	72.107	-91.3894
180.000000	72.003	-95.8582
182.500000	71.904	-100.3518
185.000000	71.813	-104.8508
187.500000	71.724	-109.3551
190.000000	71.643	-113.9007
192.500000	71.573	-118.4855
195.000000	71.511	-123.0549
197.500000	71.452	-127.5629
200.000000	71.396	-132.0157
203.000000	71.339	-137.3253
206.000000	71.287	-142.6344
209.000000	71.236	-147.9492
212.000000	71.185	-153.2562
214.000000	71.151	-156.7938
218.000000	71.086	-163.8029
220.000000	71.052	-167.2592
224.000000	70.979	-174.1840
227.000000	70.920	-179.4479
230.000000	70.860	175.2637
233.000000	70.799	170.0188
236.000000	70.739	164.8552
240.000000	70.658	158.1082
243.000000	70.592	153.1454
247.000000	70.504	146.6633
250.000000	70.449	141.9073
254.000000	70.400	135.6243
258.000000	70.378	129.2961
262.000000	70.368	122.8771
265.000000	70.362	117.9819
269.000000	70.356	111.3610
272.000000	70.351	106.3927
276.000000	70.341	99.8234
280.000000	70.323	93.3035
285.000000	70.295	85.1568
290.000000	70.267	76.9819
295.000000	70.237	68.8416
300.000000	70.198	60.7606
304.000000	70.160	54.2981
307.000000	70.130	49.4438
311.000000	70.086	42.9816
315.000000	70.040	36.5515
320.000000	69.988	28.5346
325.000000	69.948	20.5484
330.000000	69.914	12.6198
335.000000	69.876	4.7554
340.000000	69.829	-3.0364
345.000000	69.785	-10.7424
350.000000	69.750	-18.3785
355.000000	69.719	-25.9983
360.000000	69.684	-33.6219
365.000000	69.641	-41.2278
370.000000	69.588	-48.7769
375.000000	69.531	-56.2350
382.000000	69.460	-66.5277
387.000000	69.427	-73.8381
395.000000	69.407	-85.4978
400.000000	69.397	-92.7514
406.000000	69.369	-101.4432
412.000000	69.326	-110.1078
418.000000	69.272	-118.7054
425.000000	69.197	-128.6083
431.000000	69.129	-137.0176
437.000000	69.061	-145.3794
444.000000	68.981	-155.0646
450.000000	68.912	-163.3074
455.000000	68.855	-170.1462
462.000000	68.779	-179.6567
468.000000	68.711	172.2791
475.000000	68.626	162.9368
482.000000	68.546	153.6251
487.000000	68.494	147.0269
494.000000	68.427	137.9479
500.000000	68.375	130.3477
508.000000	68.320	120.4272
515.000000	68.283	111.8096
522.000000	68.250	103.1721
530.000000	68.218	93.3107
538.000000	68.199	83.5308
545.000000	68.189	75.0112
552.000000	68.179	66.4775
560.000000	68.162	56.7036
570.000000	68.139	44.5115
580.000000	68.118	32.3750
590.000000	68.095	20.3408
600.000000	68.065	8.4902
608.000000	68.034	-0.8979
615.000000	68.004	-9.0796
622.000000	67.972	-17.2346
630.000000	67.936	-26.5138
640.000000	67.898	-38.0197
650.000000	67.873	-49.4464
660.000000	67.851	-60.7716
670.000000	67.819	-71.9669
680.000000	67.775	-83.1013
690.000000	67.731	-94.2008
700.000000	67.695	-105.1963
710.000000	67.669	-116.0641
720.000000	67.645	-126.8499
730.000000	67.617	-137.5289
740.000000	67.588	-148.0607
750.000000	67.565	-158.4774
762.000000	67.542	-170.9131
775.000000	67.510	175.6021
788.000000	67.467	162.1012
800.000000	67.430	149.6764
812.000000	67.409	137.3630
825.000000	67.403	124.1432
838.000000	67.403	110.9559
850.000000	67.403	98.7625
862.000000	67.402	86.5728
875.000000	67.404	73.4089
885.000000	67.408	63.3396
900.000000	67.408	48.3359
912.000000	67.404	36.3877
925.000000	67.404	23.4581
938.000000	67.413	10.5529
950.000000	67.426	-1.2870
962.000000	67.441	-13.0385
975.000000	67.461	-25.7312
988.000000	67.486	-38.4062
1000.000000	67.509	-50.0466
1015.000000	67.538	-64.5327
1030.000000	67.568	-79.0005
1044.000000	67.599	-92.4519
1060.000000	67.635	-107.7424
1075.000000	67.669	-122.0024
1090.000000	67.704	-136.1511
1106.000000	67.744	-151.1028
1120.000000	67.780	-164.0424
1138.000000	67.828	179.5781
1150.000000	67.860	168.8197
1172.000000	67.919	149.2985
1180.000000	67.941	142.2413
1206.000000	68.010	119.4393
1220.000000	68.043	107.2922
1241.000000	68.089	89.3486
1250.000000	68.109	81.7764
1265.000000	68.141	69.2961
1280.000000	68.171	56.9435
1315.000000	68.229	28.4706
1320.000000	68.235	24.4293
1340.000000	68.254	8.3147
1360.000000	68.275	-7.6747
1380.000000	68.300	-23.4792
1400.000000	68.326	-39.0740
1430.000000	68.374	-62.3135
1450.000000	68.414	-77.8232
1475.000000	68.464	-97.1750
1500.000000	68.516	-116.3711
1525.000000	68.587	-135.2612
1550.000000	68.686	-153.8213
1575.000000	68.815	-172.0520
1600.000000	68.959	170.0044
1625.000000	69.096	152.1978
1650.000000	69.226	134.5493
1675.000000	69.356	117.1528
1700.000000	69.482	100.0093
1725.000000	69.599	83.0190
1750.000000	69.713	66.1392
1775.000000	69.823	49.4084
1800.000000	69.936	32.9456
1825.000000	70.053	16.8201
1850.000000	70.174	0.9668
1875.000000	70.302	-14.6997
1900.000000	70.441	-30.1858
1925.000000	70.590	-45.4771
1950.000000	70.747	-60.6145
1975.000000	70.905	-75.6531
2000.000000	71.068	-90.6340
2030.000000	71.279	-108.5015
2060.000000	71.506	-126.1455
2090.000000	71.739	-143.6248
2120.000000	71.965	-161.1062
2140.000000	72.109	-172.8291
2180.000000	72.383	163.6118
2200.000000	72.520	151.9004
2240.000000	72.795	128.8350
2270.000000	72.994	111.8596
2300.000000	73.187	95.1448
2330.000000	73.377	78.6633
2360.000000	73.567	62.3989
2400.000000	73.821	41.0339
2430.000000	74.008	25.2209
2470.000000	74.244	4.3440
2500.000000	74.412	-11.1711
2540.000000	74.627	-31.6021
2580.000000	74.835	-51.6836
2620.000000	75.038	-71.4875
2650.000000	75.183	-86.2598
2690.000000	75.357	-106.0039
2720.000000	75.470	-120.8486
2760.000000	75.609	-140.4402
2800.000000	75.741	-159.5088
2850.000000	75.894	177.3330
2900.000000	76.030	154.5674
2950.000000	76.133	131.8799
3000.000000	76.205	109.3245
3040.000000	76.240	91.5852
3070.000000	76.253	78.4861
3110.000000	76.256	61.2871
3150.000000	76.251	44.3767
3200.000000	76.234	23.5569
3250.000000	76.196	3.0034
3300.000000	76.135	-17.3184
3350.000000	76.055	-37.4009
3400.000000	75.973	-57.1599
3450.000000	75.895	-76.5576
3500.000000	75.816	-95.6553
3550.000000	75.738	-114.3667
3600.000000	75.666	-132.5010
3650.000000	75.601	-149.9949
3700.000000	75.542	-166.8411
3750.000000	75.487	177.0376
3820.000000	75.415	155.8027
3870.000000	75.366	141.4626
3950.000000	75.292	119.3401
4000.000000	75.245	105.8696
4060.000000	75.192	90.0479
4120.000000	75.152	74.6074
4180.000000	75.121	59.6191
4250.000000	75.091	42.8220
4310.000000	75.075	29.0972
4370.000000	75.066	15.9858
4440.000000	75.055	1.2988
4500.000000	75.049	-10.8564
4550.000000	75.049	-20.7156
4620.000000	75.056	-34.1685
4680.000000	75.068	-45.4521
4750.000000	75.085	-58.4243
4820.000000	75.104	-71.1511
4870.000000	75.119	-79.9619
4940.000000	75.144	-91.6567
5000.000000	75.175	-100.9536
5080.000000	75.229	-112.4648
5150.000000	75.287	-122.0046
5220.000000	75.362	-131.0876
5300.000000	75.474	-140.7148
5380.000000	75.606	-149.3652
5450.000000	75.737	-155.8557
5520.000000	75.890	-161.0232
5600.000000	76.095	-165.5112
5700.000000	76.385	-170.1628
5800.000000	76.720	-174.7129
5900.000000	77.098	-179.2581
6000.000000	77.494	176.4458
6080.000000	77.800	173.2776
6150.000000	78.045	170.6714
6220.000000	78.254	168.1328
6300.000000	78.433	165.1516
6400.000000	78.549	161.0139
6500.000000	78.540	156.3555
6600.000000	78.439	151.8459
6700.000000	78.298	148.3235
6800.000000	78.156	145.8804
6900.000000	78.047	144.2739
7000.000000	78.005	143.5120
7100.000000	78.043	143.6333
7200.000000	78.161	144.5386
7300.000000	78.354	146.1138
7400.000000	78.615	148.2402
7500.000000	78.931	150.8350
7620.000000	79.360	154.4626
7750.000000	79.852	158.6694
7880.000000	80.342	162.9260
8000.000000	80.760	166.7856
8120.000000	81.105	170.4790
8250.000000	81.342	174.2610
8380.000000	81.379	177.9602
8500.000000	81.188	-178.5444
8620.000000	80.749	-174.9014
8750.000000	79.983	-170.4917
8850.000000	79.208	-166.1924
9000.000000	77.822	-156.8813
9120.000000	76.589	-146.3289
9250.000000	75.194	-131.9617
9380.000000	73.791	-115.2190
9500.000000	72.527	-98.1650
9620.000000	71.315	-79.7637
9750.000000	70.079	-58.4890
9880.000000	68.935	-35.8235
10000.000000	67.966	-13.4263
10150.000000	66.870	16.4985
10300.000000	65.899	48.1504
10440.000000	65.113	79.0947
10600.000000	64.370	116.0029
10750.000000	63.833	151.5825
10900.000000	63.458	-172.0742
11060.000000	63.249	-131.7070
11200.000000	63.214	-95.0542
11380.000000	63.309	-46.7637
11500.000000	63.415	-13.3933
11720.000000	63.611	51.1948
11800.000000	63.671	74.9365
12060.000000	63.811	149.3833
12200.000000	63.877	-170.7825
12410.000000	64.018	-107.9897
12500.000000	64.104	-79.2720
12650.000000	64.291	-28.8257
12800.000000	64.539	23.2336
13150.000000	65.424	151.5068
13200.000000	65.590	170.7815
13400.000000	66.348	-113.1443
13600.000000	67.247	-40.9321
13800.000000	68.258	29.7319
14000.000000	69.315	99.0591
14300.000000	70.636	-177.7053
14500.000000	71.056	-134.6580
14750.000000	70.813	-86.1484
15000.000000	69.729	-35.7192
15250.000000	68.065	25.0641
15500.000000	66.178	133.4102
15750.000000	64.374	-87.6523
16000.000000	62.850	17.1718
16250.000000	61.687	132.1978
16500.000000	60.880	-119.3568
16750.000000	60.406	-13.8779
17000.000000	60.235	98.1427
17250.000000	60.321	-117.7255
17500.000000	60.605	5.4618
17750.000000	61.000	106.1626
18000.000000	61.381	-90.0895
18250.000000	61.625	4.6051
18500.000000	61.631	85.9232
18750.000000	61.323	-174.7327
19000.000000	60.668	-22.7276
19250.000000	59.710	58.8935
19500.000000	58.574	96.2271
19750.000000	57.491	81.6813
20000.000000	56.816	98.3209
