* Measurement data measured by REW V5.30.5
* Source: Microphone (4- USB Audio Device), MICROPHONE (Master Volume), R, volume: 0.250
* Format: 256k Log Swept Sine, 1 sweep at -12.0 dBFS with no timing reference
* Dated: 21-Jan-2024 13:05:23
* REW Settings:
*  C-weighting compensation: Off
*  Target level: 75.0 dB
* Note: 
* Measurement: SoundPEATS GoFree 2 L
* Smoothing: 1/12 octave
* Frequency Step: 1/48 octave
* Start Frequency: 20.300 Hz
*
* Freq(Hz)	SPL(dB)	Phase(degrees)
20.299999	52.326	177.8549
20.600000	52.684	-178.6976
20.900000	53.352	-174.5245
21.200001	54.228	-171.1489
21.400000	54.827	-169.7411
21.799999	55.853	-168.7828
22.000000	56.234	-168.9214
22.400000	56.731	-169.6454
22.700001	56.934	-170.1636
23.000000	57.070	-170.5406
23.299999	57.206	-170.8988
23.600000	57.376	-171.4529
24.000000	57.641	-172.7210
24.299999	57.832	-173.9811
24.700001	58.025	-175.6265
25.000000	58.121	-176.5057
25.400000	58.217	-176.9634
25.799999	58.332	-176.8043
26.200001	58.498	-176.6071
26.500000	58.652	-176.7696
26.900000	58.879	-177.5572
27.200001	59.066	-178.4784
27.600000	59.360	-179.8466
28.000000	59.728	178.9304
28.500000	60.281	177.8154
29.000000	60.838	177.0952
29.500000	61.277	176.6520
30.000000	61.545	176.4274
30.400000	61.659	176.3219
30.700001	61.715	176.1979
31.100000	61.785	175.8496
31.500000	61.880	175.2136
32.000000	62.058	174.0890
32.500000	62.311	172.8659
33.000000	62.639	171.7475
33.500000	63.031	170.6628
34.000000	63.453	169.4152
34.500000	63.857	167.9842
35.000000	64.218	166.6178
35.500000	64.533	165.6358
36.000000	64.815	165.1615
36.500000	65.066	165.0231
37.000000	65.282	164.8739
37.500000	65.462	164.3758
38.200001	65.676	162.7526
38.700001	65.817	161.0566
39.500000	66.031	158.5031
40.000000	66.171	157.6921
40.599998	66.389	157.6889
41.200001	66.684	158.1661
41.799999	67.034	158.3418
42.500000	67.444	157.7227
43.099998	67.754	156.6668
43.700001	68.011	155.4352
44.400002	68.251	153.9722
45.000000	68.425	152.6938
45.500000	68.562	151.6433
46.200001	68.768	150.4435
46.799999	68.987	149.8564
47.500000	69.287	149.5139
48.200001	69.570	149.1031
48.700001	69.732	148.6573
49.400002	69.938	147.8303
50.000000	70.151	146.8592
50.799999	70.502	145.0828
51.500000	70.801	143.4055
52.200001	71.053	142.1078
53.000000	71.296	141.1901
53.799999	71.505	140.5103
54.500000	71.675	139.8780
55.200001	71.857	139.1172
56.000000	72.088	138.0204
57.000000	72.375	136.4518
58.000000	72.645	134.9317
59.000000	72.912	133.5080
60.000000	73.201	132.4124
60.799999	73.473	131.7766
61.500000	73.721	131.2059
62.200001	73.945	130.5438
63.000000	74.160	129.6856
64.000000	74.380	128.4780
65.000000	74.577	127.1920
66.000000	74.782	125.8999
67.000000	74.999	124.6932
68.000000	75.238	123.6882
69.000000	75.509	122.7452
70.000000	75.787	121.6609
71.000000	76.036	120.4323
72.000000	76.248	119.1961
73.000000	76.451	118.0788
74.000000	76.669	117.0396
75.000000	76.893	115.9493
76.199997	77.148	114.5068
77.500000	77.406	112.8082
78.800003	77.637	111.0818
80.000000	77.811	109.4972
81.199997	77.947	107.8568
82.500000	78.080	106.0974
83.800003	78.229	104.5639
85.000000	78.370	103.5532
86.199997	78.514	102.9258
87.500000	78.689	102.3619
88.500000	78.841	101.8278
90.000000	79.089	100.8154
91.199997	79.303	99.8775
92.500000	79.543	98.7464
93.800003	79.773	97.4939
95.000000	79.965	96.2796
96.199997	80.146	95.0543
97.500000	80.341	93.6865
98.800003	80.538	92.2281
100.000000	80.711	90.8649
101.500000	80.908	89.2890
103.000000	81.090	87.8796
104.400002	81.259	86.6515
106.000000	81.452	85.2568
107.500000	81.638	83.8837
109.000000	81.834	82.4414
110.599998	82.043	80.9508
112.000000	82.216	79.7195
113.800003	82.428	78.1866
115.000000	82.573	77.1632
117.199997	82.846	75.1354
118.000000	82.946	74.3578
120.599998	83.256	71.8444
122.000000	83.410	70.4429
124.099998	83.632	68.3142
125.000000	83.725	67.4498
126.500000	83.876	66.0550
128.000000	84.015	64.6071
131.500000	84.270	60.8319
132.000000	84.299	60.2921
134.000000	84.408	58.2559
136.000000	84.507	56.4254
138.000000	84.597	54.7472
140.000000	84.692	53.1777
143.000000	84.871	50.8811
145.000000	85.005	49.2986
147.500000	85.177	47.2926
150.000000	85.363	45.2532
152.500000	85.548	43.0652
155.000000	85.704	40.7119
157.500000	85.820	38.3228
160.000000	85.901	36.0094
162.500000	85.950	33.7438
165.000000	85.975	31.5031
167.500000	85.993	29.3544
170.000000	86.017	27.3439
172.500000	86.043	25.4771
175.000000	86.066	23.7139
177.500000	86.084	22.0333
180.000000	86.098	20.3958
182.500000	86.108	18.7498
185.000000	86.116	17.0512
187.500000	86.126	15.3623
190.000000	86.138	13.7534
192.500000	86.147	12.2161
195.000000	86.155	10.7060
197.500000	86.167	9.1982
200.000000	86.181	7.7010
203.000000	86.192	5.9292
206.000000	86.186	4.2345
209.000000	86.167	2.6767
212.000000	86.151	1.1980
214.000000	86.144	0.2268
218.000000	86.136	-1.6964
220.000000	86.133	-2.6238
224.000000	86.119	-4.3828
227.000000	86.092	-5.6365
230.000000	86.055	-6.8628
233.000000	86.016	-8.0970
236.000000	85.981	-9.3170
240.000000	85.937	-10.8414
243.000000	85.901	-11.9172
247.000000	85.855	-13.3323
250.000000	85.823	-14.3343
254.000000	85.775	-15.5386
258.000000	85.713	-16.6700
262.000000	85.642	-17.7722
265.000000	85.590	-18.5777
269.000000	85.524	-19.6338
272.000000	85.475	-20.4246
276.000000	85.414	-21.4804
280.000000	85.352	-22.5242
285.000000	85.271	-23.7099
290.000000	85.189	-24.7425
295.000000	85.106	-25.7302
300.000000	85.021	-26.7038
304.000000	84.954	-27.4470
307.000000	84.907	-27.9663
311.000000	84.851	-28.5971
315.000000	84.808	-29.1979
320.000000	84.759	-29.9463
325.000000	84.705	-30.7173
330.000000	84.642	-31.5195
335.000000	84.568	-32.2815
340.000000	84.494	-32.9782
345.000000	84.426	-33.6145
350.000000	84.363	-34.2369
355.000000	84.306	-34.9095
360.000000	84.255	-35.6379
365.000000	84.203	-36.3976
370.000000	84.151	-37.1212
375.000000	84.103	-37.7441
382.000000	84.045	-38.5674
387.000000	84.007	-39.1987
395.000000	83.933	-40.2874
400.000000	83.880	-41.0008
406.000000	83.809	-41.7524
412.000000	83.733	-42.3246
418.000000	83.662	-42.8050
425.000000	83.597	-43.2553
431.000000	83.552	-43.5999
437.000000	83.503	-43.9822
444.000000	83.431	-44.4197
450.000000	83.366	-44.7750
455.000000	83.322	-45.1006
462.000000	83.280	-45.5713
468.000000	83.253	-45.8809
475.000000	83.223	-46.0719
482.000000	83.192	-46.2197
487.000000	83.172	-46.3548
494.000000	83.156	-46.5376
500.000000	83.149	-46.6291
508.000000	83.135	-46.6897
515.000000	83.112	-46.7631
522.000000	83.085	-46.9355
530.000000	83.057	-47.2265
538.000000	83.027	-47.4543
545.000000	83.000	-47.5987
552.000000	82.974	-47.7054
560.000000	82.941	-47.7500
570.000000	82.897	-47.8256
580.000000	82.876	-47.9016
590.000000	82.870	-47.7062
600.000000	82.861	-47.1973
608.000000	82.859	-46.7478
615.000000	82.861	-46.4456
622.000000	82.860	-46.1893
630.000000	82.845	-45.8588
640.000000	82.813	-45.3787
650.000000	82.775	-44.8766
660.000000	82.740	-44.3358
670.000000	82.701	-43.7774
680.000000	82.649	-43.1558
690.000000	82.592	-42.4464
700.000000	82.549	-41.7333
710.000000	82.525	-41.1223
720.000000	82.509	-40.6629
730.000000	82.494	-40.3195
740.000000	82.474	-39.9943
750.000000	82.444	-39.5976
762.000000	82.417	-39.0661
775.000000	82.426	-38.3686
788.000000	82.445	-37.4193
800.000000	82.447	-36.4793
812.000000	82.434	-35.5433
825.000000	82.408	-34.5558
838.000000	82.393	-33.6197
850.000000	82.391	-32.6898
862.000000	82.399	-31.6876
875.000000	82.418	-30.6229
885.000000	82.434	-29.8190
900.000000	82.450	-28.6582
912.000000	82.460	-27.7035
925.000000	82.473	-26.5747
938.000000	82.490	-25.3856
950.000000	82.510	-24.2560
962.000000	82.541	-23.1081
975.000000	82.589	-21.8651
988.000000	82.649	-20.6527
1000.000000	82.705	-19.5636
1015.000000	82.752	-18.2691
1030.000000	82.774	-16.9930
1044.000000	82.798	-15.6853
1060.000000	82.847	-13.9353
1075.000000	82.908	-12.0645
1090.000000	82.981	-10.1039
1106.000000	83.073	-7.9553
1120.000000	83.169	-5.9804
1138.000000	83.306	-3.2745
1150.000000	83.403	-1.4283
1172.000000	83.601	1.8113
1180.000000	83.678	2.9250
1206.000000	83.937	6.3640
1220.000000	84.074	8.1745
1241.000000	84.273	11.0169
1250.000000	84.359	12.3170
1265.000000	84.516	14.5782
1280.000000	84.694	16.9159
1315.000000	85.217	22.4956
1320.000000	85.303	23.2875
1340.000000	85.664	26.4017
1360.000000	86.060	29.4497
1380.000000	86.502	32.4178
1400.000000	86.979	35.1785
1430.000000	87.731	38.8425
1450.000000	88.262	40.8980
1475.000000	88.944	42.9622
1500.000000	89.636	44.6246
1525.000000	90.361	46.1561
1550.000000	91.144	47.5223
1575.000000	91.978	48.5540
1600.000000	92.847	49.0983
1625.000000	93.731	49.0092
1650.000000	94.604	48.2127
1675.000000	95.440	46.7339
1700.000000	96.217	44.7106
1725.000000	96.926	42.3320
1750.000000	97.564	39.7329
1775.000000	98.134	37.0262
1800.000000	98.644	34.4046
1825.000000	99.110	32.0752
1850.000000	99.554	30.0170
1875.000000	99.982	28.0413
1900.000000	100.390	25.9860
1925.000000	100.763	23.7846
1950.000000	101.085	21.4693
1975.000000	101.352	19.2058
2000.000000	101.573	17.2030
2030.000000	101.799	15.2311
2060.000000	102.000	13.6089
2090.000000	102.193	12.2065
2120.000000	102.412	10.9562
2140.000000	102.579	10.1633
2180.000000	102.936	8.5079
2200.000000	103.108	7.5940
2240.000000	103.429	5.6033
2270.000000	103.653	4.0376
2300.000000	103.865	2.5087
2330.000000	104.065	1.0306
2360.000000	104.256	-0.4635
2400.000000	104.497	-2.5445
2430.000000	104.656	-4.1458
2470.000000	104.828	-6.2571
2500.000000	104.920	-7.7665
2540.000000	104.998	-9.5841
2580.000000	105.030	-11.1958
2620.000000	105.034	-12.5902
2650.000000	105.037	-13.4761
2690.000000	105.044	-14.5161
2720.000000	105.046	-15.2280
2760.000000	105.040	-16.1049
2800.000000	105.024	-16.8459
2850.000000	104.992	-17.4717
2900.000000	104.941	-17.8013
2950.000000	104.860	-17.9643
3000.000000	104.739	-17.9489
3040.000000	104.632	-17.6445
3070.000000	104.559	-17.2167
3110.000000	104.467	-16.4694
3150.000000	104.367	-15.6100
3200.000000	104.219	-14.2600
3250.000000	104.051	-12.4022
3300.000000	103.895	-10.0821
3350.000000	103.776	-7.4627
3400.000000	103.702	-4.5996
3450.000000	103.674	-1.4958
3500.000000	103.698	1.7327
3550.000000	103.781	4.8781
3600.000000	103.926	7.8000
3650.000000	104.138	10.4677
3700.000000	104.410	12.8674
3750.000000	104.740	14.9847
3820.000000	105.293	17.2561
3870.000000	105.724	18.0498
3950.000000	106.406	17.4547
4000.000000	106.788	15.8937
4060.000000	107.156	12.9689
4120.000000	107.400	9.2217
4180.000000	107.512	5.0368
4250.000000	107.480	0.1089
4310.000000	107.329	-3.7265
4370.000000	107.098	-6.8890
4440.000000	106.769	-9.6539
4500.000000	106.466	-11.3532
4550.000000	106.211	-12.4025
4620.000000	105.860	-13.5868
4680.000000	105.564	-14.6235
4750.000000	105.210	-16.0815
4820.000000	104.818	-17.8129
4870.000000	104.496	-19.0947
4940.000000	103.972	-20.6092
5000.000000	103.461	-21.3137
5080.000000	102.697	-21.2841
5150.000000	101.929	-20.5753
5220.000000	101.051	-19.2594
5300.000000	99.946	-16.8438
5380.000000	98.789	-13.3257
5450.000000	97.782	-9.2208
5520.000000	96.829	-4.1371
5600.000000	95.865	2.9183
5700.000000	94.987	13.5274
5800.000000	94.591	24.4126
5900.000000	94.534	33.1976
6000.000000	94.543	39.2147
6080.000000	94.471	42.5719
6150.000000	94.307	44.9516
6220.000000	94.044	47.2527
6300.000000	93.656	50.3275
6400.000000	93.130	55.3905
6500.000000	92.656	61.9984
6600.000000	92.296	69.6163
6700.000000	92.016	77.3540
6800.000000	91.750	85.0299
6900.000000	91.470	92.9006
7000.000000	91.173	101.1882
7100.000000	90.863	109.9993
7200.000000	90.538	119.1983
7300.000000	90.212	128.5187
7400.000000	89.919	137.8745
7500.000000	89.685	147.1820
7620.000000	89.473	157.9674
7750.000000	89.262	168.6504
7880.000000	88.998	177.9561
8000.000000	88.632	-174.5225
8120.000000	88.036	-167.4710
8250.000000	87.037	-158.9136
8380.000000	85.727	-147.2213
8500.000000	84.470	-131.5473
8620.000000	83.538	-111.0094
8750.000000	83.186	-88.7707
8850.000000	83.277	-75.1601
9000.000000	83.606	-60.0537
9120.000000	83.837	-51.1750
9250.000000	83.892	-44.1314
9380.000000	83.588	-39.1141
9500.000000	82.884	-35.4414
9620.000000	81.713	-31.5218
9750.000000	79.941	-24.5615
9880.000000	77.972	-7.7052
10000.000000	76.857	35.9685
10150.000000	77.602	93.0836
10300.000000	79.649	112.8040
10440.000000	81.524	121.2128
10600.000000	83.247	127.2509
10750.000000	84.441	131.6750
10900.000000	85.241	135.6455
11060.000000	85.649	139.4933
11200.000000	85.599	142.7150
11380.000000	84.966	147.6038
11500.000000	84.233	152.0854
11720.000000	82.488	164.0767
11800.000000	81.806	169.6785
12060.000000	79.750	-168.9839
12200.000000	78.812	-156.5209
12410.000000	77.612	-136.9465
12500.000000	77.174	-127.8768
12650.000000	76.567	-111.4104
12800.000000	76.130	-93.4622
13150.000000	75.735	-52.2695
13200.000000	75.735	-47.2963
13400.000000	75.785	-31.5869
13600.000000	75.646	-23.1494
13800.000000	74.903	-20.5166
14000.000000	73.271	-20.9388
14300.000000	69.370	-27.4642
14500.000000	66.834	-100.9186
14750.000000	65.775	-158.0234
15000.000000	66.904	-132.2333
15250.000000	69.241	-91.4881
15500.000000	71.969	-63.4550
15750.000000	74.344	-48.3776
16000.000000	75.954	-40.4294
16250.000000	76.569	-36.0831
16500.000000	76.133	-31.7856
16750.000000	74.842	-24.0754
17000.000000	73.060	-10.3276
17250.000000	71.128	10.4762
17500.000000	69.274	35.5107
17750.000000	67.526	58.5667
18000.000000	65.903	80.0856
18250.000000	65.002	151.3018
18500.000000	65.400	-101.3889
18750.000000	66.395	-81.1321
19000.000000	67.156	-63.5547
19250.000000	67.457	-43.3403
19500.000000	67.445	-18.8514
19750.000000	67.364	6.4100
20000.000000	67.330	22.4238
