* Measurement data measured by REW V5.20.13
* Source: Microphone (USB Audio Device), MICROPHONE (Master Volume), R, volume: 0.250
* Format: 256k Log Swept Sine, 1 sweep at -12.0 dBFS with no timing reference
* Dated: 16-Oct-2023 17:33:46
* REW Settings:
*  C-weighting compensation: Off
*  Target level: 75.0 dB
* Note: 
* Measurement: SoundPEATS Clear L
* Smoothing: 1/12 octave
* Frequency Step: 1/48 octave
* Start Frequency: 20.300 Hz
*
* Freq(Hz)	SPL(dB)	Phase(degrees)
20.299999	76.511	84.3648
20.600000	76.556	83.1984
20.900000	76.665	80.7083
21.200001	76.783	77.8996
21.400000	76.860	75.9656
21.799999	77.001	72.0436
22.000000	77.064	70.0958
22.400000	77.175	66.2749
22.700001	77.254	63.4996
23.000000	77.338	60.7949
23.299999	77.429	58.1159
23.600000	77.525	55.4149
24.000000	77.654	51.7213
24.299999	77.741	48.8740
24.700001	77.839	45.0206
25.000000	77.901	42.1396
25.400000	77.978	38.3597
25.799999	78.063	34.6440
26.200001	78.162	30.9317
26.500000	78.238	28.1188
26.900000	78.328	24.3435
27.200001	78.377	21.5487
27.600000	78.416	17.9702
28.000000	78.436	14.6344
28.500000	78.464	10.7265
29.000000	78.518	6.7791
29.500000	78.588	2.4784
30.000000	78.640	-2.1943
30.400000	78.659	-6.0120
30.700001	78.663	-8.8106
31.100000	78.669	-12.3784
31.500000	78.686	-15.7746
32.000000	78.722	-19.9029
32.500000	78.760	-24.0359
33.000000	78.784	-28.2085
33.500000	78.799	-32.3873
34.000000	78.818	-36.5618
34.500000	78.844	-40.7401
35.000000	78.865	-44.8844
35.500000	78.872	-48.9063
36.000000	78.871	-52.7598
36.500000	78.874	-56.5024
37.000000	78.884	-60.2526
37.500000	78.894	-64.0760
38.200001	78.887	-69.4986
38.700001	78.868	-73.3539
39.500000	78.832	-79.4978
40.000000	78.815	-83.3636
40.599998	78.810	-88.0344
41.200001	78.825	-92.7256
41.799999	78.847	-97.4239
42.500000	78.846	-102.8420
43.099998	78.810	-107.3323
43.700001	78.757	-111.6681
44.400002	78.705	-116.6646
45.000000	78.677	-121.0202
45.500000	78.657	-124.7202
46.200001	78.622	-129.9418
46.799999	78.580	-134.3707
47.500000	78.523	-139.3977
48.200001	78.468	-144.2589
48.700001	78.431	-147.6645
49.400002	78.375	-152.4034
50.000000	78.316	-156.4641
50.799999	78.228	-161.8813
51.500000	78.155	-166.6381
52.200001	78.086	-171.4178
53.000000	78.001	-176.8783
53.799999	77.913	177.6763
54.500000	77.844	172.8892
55.200001	77.786	168.0707
56.000000	77.716	162.6110
57.000000	77.609	156.0699
58.000000	77.509	149.8705
59.000000	77.436	143.7415
60.000000	77.365	137.5053
60.799999	77.294	132.4402
61.500000	77.222	127.9644
62.200001	77.141	123.4955
63.000000	77.038	118.4846
64.000000	76.902	112.3730
65.000000	76.759	106.2621
66.000000	76.617	100.0859
67.000000	76.488	93.9357
68.000000	76.373	87.9130
69.000000	76.260	82.0905
70.000000	76.139	76.4616
71.000000	76.008	70.9278
72.000000	75.874	65.3773
73.000000	75.751	59.7531
74.000000	75.636	54.0500
75.000000	75.516	48.2736
76.199997	75.353	41.2646
77.500000	75.168	33.7471
78.800003	75.006	26.5189
80.000000	74.868	20.0529
81.199997	74.716	13.6365
82.500000	74.545	6.6074
83.800003	74.378	-0.4731
85.000000	74.209	-6.8430
86.199997	74.016	-12.9760
87.500000	73.794	-19.4818
88.500000	73.628	-24.4437
90.000000	73.408	-31.8491
91.199997	73.275	-37.7794
92.500000	73.172	-44.1926
93.800003	73.083	-50.5240
95.000000	72.986	-56.2656
96.199997	72.858	-61.8732
97.500000	72.680	-67.7472
98.800003	72.484	-73.5044
100.000000	72.316	-78.8984
101.500000	72.134	-85.8137
103.000000	71.960	-92.7330
104.400002	71.796	-99.0271
106.000000	71.617	-105.9800
107.500000	71.474	-112.4396
109.000000	71.355	-119.0021
110.599998	71.235	-126.1217
112.000000	71.114	-132.3984
113.800003	70.934	-140.3264
115.000000	70.822	-145.4388
117.199997	70.662	-154.6230
118.000000	70.614	-157.9592
120.599998	70.498	-168.7722
122.000000	70.454	-174.5251
124.099998	70.361	176.8687
125.000000	70.306	173.1857
126.500000	70.208	167.0978
128.000000	70.125	161.0907
131.500000	69.983	147.0366
132.000000	69.966	144.9941
134.000000	69.923	136.7958
136.000000	69.914	128.6577
138.000000	69.909	120.5180
140.000000	69.891	112.3120
143.000000	69.830	100.1188
145.000000	69.793	92.2595
147.500000	69.790	82.6064
150.000000	69.807	72.7883
152.500000	69.811	62.8090
155.000000	69.799	52.7610
157.500000	69.785	42.5987
160.000000	69.794	32.3145
162.500000	69.817	22.0765
165.000000	69.850	12.0399
167.500000	69.898	2.0592
170.000000	69.956	-7.9464
172.500000	70.013	-18.0410
175.000000	70.059	-28.2267
177.500000	70.079	-38.3606
180.000000	70.073	-48.3162
182.500000	70.055	-58.1661
185.000000	70.024	-68.1498
187.500000	69.973	-78.3495
190.000000	69.913	-88.5837
192.500000	69.858	-98.6608
195.000000	69.821	-108.5522
197.500000	69.800	-118.3187
200.000000	69.793	-128.0398
203.000000	69.812	-139.7277
206.000000	69.860	-151.3967
209.000000	69.907	-162.9805
212.000000	69.916	-174.5294
214.000000	69.904	177.7690
218.000000	69.869	162.4414
220.000000	69.850	154.8513
224.000000	69.801	139.7817
227.000000	69.764	128.5713
230.000000	69.748	117.4250
233.000000	69.760	106.3011
236.000000	69.784	95.1985
240.000000	69.808	80.3495
243.000000	69.814	69.0967
247.000000	69.796	54.0009
250.000000	69.774	42.7456
254.000000	69.764	27.9254
258.000000	69.773	13.2195
262.000000	69.770	-1.3823
265.000000	69.746	-12.2090
269.000000	69.694	-26.5143
272.000000	69.645	-37.1771
276.000000	69.574	-51.2925
280.000000	69.505	-65.2914
285.000000	69.451	-82.7468
290.000000	69.420	-100.2898
295.000000	69.386	-117.8241
300.000000	69.348	-135.2852
304.000000	69.304	-149.1237
307.000000	69.268	-159.3723
311.000000	69.226	-172.8918
315.000000	69.196	173.6359
320.000000	69.169	156.7233
325.000000	69.147	139.8414
330.000000	69.134	123.1406
335.000000	69.118	106.5735
340.000000	69.087	90.0807
345.000000	69.054	73.6947
350.000000	69.026	57.4449
355.000000	69.000	41.2988
360.000000	68.974	25.1769
365.000000	68.956	8.9998
370.000000	68.960	-7.2455
375.000000	68.982	-23.5020
382.000000	69.005	-46.1652
387.000000	69.010	-62.2543
395.000000	69.009	-87.7391
400.000000	69.012	-103.5737
406.000000	69.022	-122.5266
412.000000	69.027	-141.3595
418.000000	69.026	-160.0122
425.000000	69.040	178.3721
431.000000	69.072	159.8633
437.000000	69.107	141.3484
444.000000	69.137	119.7915
450.000000	69.156	101.3613
455.000000	69.167	86.0317
462.000000	69.186	64.7151
468.000000	69.220	46.6609
475.000000	69.268	25.8264
482.000000	69.302	5.0967
487.000000	69.322	-9.7026
494.000000	69.351	-30.3801
500.000000	69.375	-48.0417
508.000000	69.407	-71.4575
515.000000	69.447	-91.7559
522.000000	69.502	-111.8726
530.000000	69.565	-134.7251
538.000000	69.607	-157.5269
545.000000	69.626	-177.4424
552.000000	69.641	162.7012
560.000000	69.658	140.1287
570.000000	69.677	112.1050
580.000000	69.696	84.2283
590.000000	69.719	56.4954
600.000000	69.755	28.9700
608.000000	69.782	7.1047
615.000000	69.801	-11.9124
622.000000	69.815	-30.7866
630.000000	69.824	-52.1099
640.000000	69.833	-78.3806
650.000000	69.854	-104.4451
660.000000	69.888	-130.5308
670.000000	69.932	-156.7036
680.000000	69.979	177.1704
690.000000	70.021	151.2593
700.000000	70.066	125.5422
710.000000	70.112	99.9709
720.000000	70.156	74.5156
730.000000	70.195	49.2168
740.000000	70.219	24.2214
750.000000	70.232	-0.4182
762.000000	70.268	-29.6375
775.000000	70.346	-61.0195
788.000000	70.436	-92.3367
800.000000	70.514	-121.3262
812.000000	70.586	-150.2888
825.000000	70.650	178.5564
838.000000	70.702	147.6672
850.000000	70.757	119.3945
862.000000	70.824	91.3621
875.000000	70.902	61.1814
885.000000	70.964	38.0317
900.000000	71.052	3.4507
912.000000	71.129	-23.9890
925.000000	71.223	-53.4497
938.000000	71.323	-82.6624
950.000000	71.413	-109.4885
962.000000	71.487	-136.2573
975.000000	71.544	-165.2070
988.000000	71.594	165.9846
1000.000000	71.653	139.6018
1015.000000	71.747	106.8870
1030.000000	71.836	74.3940
1044.000000	71.905	44.2886
1060.000000	71.986	10.2539
1075.000000	72.073	-21.2573
1090.000000	72.163	-52.4094
1106.000000	72.255	-85.3445
1120.000000	72.328	-113.9956
1138.000000	72.420	-150.6411
1150.000000	72.485	-174.9492
1172.000000	72.600	140.7212
1180.000000	72.640	124.6697
1206.000000	72.763	72.8000
1220.000000	72.831	45.1348
1241.000000	72.949	4.1824
1250.000000	73.009	-13.1394
1265.000000	73.122	-41.7266
1280.000000	73.246	-70.0159
1315.000000	73.526	-135.1370
1320.000000	73.560	-144.3633
1340.000000	73.674	178.8457
1360.000000	73.752	142.2395
1380.000000	73.809	105.9292
1400.000000	73.862	70.0022
1430.000000	73.963	16.7607
1450.000000	74.067	-18.4702
1475.000000	74.243	-62.4219
1500.000000	74.443	-106.1943
1525.000000	74.654	-149.5879
1550.000000	74.872	167.4976
1575.000000	75.087	125.1123
1600.000000	75.304	83.2520
1625.000000	75.515	41.7690
1650.000000	75.705	0.6016
1675.000000	75.885	-40.2124
1700.000000	76.061	-80.6772
1725.000000	76.229	-120.7578
1750.000000	76.387	-160.4365
1775.000000	76.537	160.2686
1800.000000	76.672	121.3311
1825.000000	76.786	82.7383
1850.000000	76.881	44.5425
1875.000000	76.959	6.8091
1900.000000	77.021	-30.4746
1925.000000	77.074	-67.3501
1950.000000	77.124	-103.8115
1975.000000	77.175	-139.8213
2000.000000	77.226	-175.3813
2030.000000	77.281	142.4619
2060.000000	77.330	100.8076
2090.000000	77.376	59.6001
2120.000000	77.429	18.7754
2140.000000	77.470	-8.2349
2180.000000	77.559	-61.6943
2200.000000	77.601	-88.1123
2240.000000	77.681	-140.3408
2270.000000	77.737	-178.9775
2300.000000	77.801	142.9541
2330.000000	77.882	105.5610
2360.000000	77.967	68.9229
2400.000000	78.073	21.2646
2430.000000	78.156	-13.6670
2470.000000	78.284	-59.3008
2500.000000	78.391	-92.9399
2540.000000	78.544	-137.1704
2580.000000	78.702	179.1440
2620.000000	78.858	135.8921
2650.000000	78.977	103.7173
2690.000000	79.131	61.1621
2720.000000	79.236	29.5215
2760.000000	79.357	-12.2178
2800.000000	79.472	-53.2734
2850.000000	79.622	-103.4058
2900.000000	79.767	-152.0190
2950.000000	79.878	160.8516
3000.000000	79.955	114.9502
3040.000000	80.007	79.0669
3070.000000	80.040	52.6787
3110.000000	80.071	18.2251
3150.000000	80.091	-15.4209
3200.000000	80.096	-56.4629
3250.000000	80.071	-96.5371
3300.000000	80.023	-135.7515
3350.000000	79.962	-174.0981
3400.000000	79.887	148.4668
3450.000000	79.795	111.9336
3500.000000	79.691	76.2188
3550.000000	79.575	41.2295
3600.000000	79.452	6.9937
3650.000000	79.328	-26.3374
3700.000000	79.208	-58.6035
3750.000000	79.097	-89.7793
3820.000000	78.964	-131.9067
3870.000000	78.890	-161.3198
3950.000000	78.788	151.9805
4000.000000	78.721	122.8901
4060.000000	78.628	88.2793
4120.000000	78.518	54.2451
4180.000000	78.384	21.0229
4250.000000	78.201	-16.3281
4310.000000	78.030	-46.9863
4370.000000	77.845	-76.5098
4440.000000	77.619	-109.7183
4500.000000	77.427	-137.1772
4550.000000	77.270	-159.3867
4620.000000	77.047	170.4658
4680.000000	76.846	145.5078
4750.000000	76.586	117.5591
4820.000000	76.301	90.9805
4870.000000	76.091	72.8076
4940.000000	75.798	48.4805
5000.000000	75.553	28.7061
5080.000000	75.237	3.8247
5150.000000	74.964	-16.7427
5220.000000	74.686	-36.2847
5300.000000	74.369	-57.2861
5380.000000	74.060	-76.7378
5450.000000	73.803	-92.4731
5520.000000	73.571	-107.0615
5600.000000	73.351	-122.3721
5700.000000	73.161	-139.5928
5800.000000	73.059	-154.8018
5900.000000	73.040	-167.9932
6000.000000	73.095	-179.4697
6080.000000	73.173	172.4263
6150.000000	73.260	166.2002
6220.000000	73.366	160.8984
6300.000000	73.514	156.0049
6400.000000	73.739	151.4180
6500.000000	74.002	148.2563
6600.000000	74.302	146.4014
6700.000000	74.650	145.7373
6800.000000	75.061	146.1943
6900.000000	75.545	147.6816
7000.000000	76.088	149.9414
7100.000000	76.671	152.7588
7200.000000	77.261	155.9844
7300.000000	77.805	159.5449
7400.000000	78.241	163.6152
7500.000000	78.516	168.6074
7620.000000	78.568	176.6455
7750.000000	78.236	-170.9502
7880.000000	77.501	-154.2266
8000.000000	76.509	-135.0923
8120.000000	75.309	-112.3398
8250.000000	73.893	-83.4150
8380.000000	72.478	-50.0996
8500.000000	71.253	-15.7427
8620.000000	70.149	21.6602
8750.000000	69.103	64.9277
8850.000000	68.400	99.8057
9000.000000	67.477	154.6001
9120.000000	66.823	-159.3223
9250.000000	66.176	-107.2017
9380.000000	65.589	-52.9150
9500.000000	65.118	-0.8071
9620.000000	64.735	53.2593
9750.000000	64.422	113.6533
9880.000000	64.188	175.3521
10000.000000	64.024	-126.5322
10150.000000	63.895	-51.6724
10300.000000	63.879	26.3110
10440.000000	63.964	102.2241
10600.000000	64.159	-167.5337
10750.000000	64.446	-79.8916
10900.000000	64.859	10.5015
11060.000000	65.459	109.6016
11200.000000	66.117	-161.9868
11380.000000	67.113	-47.2017
11500.000000	67.836	29.5874
11720.000000	69.125	171.0688
11800.000000	69.530	-137.1934
12060.000000	70.357	32.1157
12200.000000	70.394	124.6362
12410.000000	69.888	-92.9399
12500.000000	69.493	-30.0913
12650.000000	68.668	77.4819
12800.000000	67.722	-171.3228
13150.000000	65.478	101.0967
13200.000000	65.177	141.3315
13400.000000	64.058	-54.8281
13600.000000	63.128	113.3076
13800.000000	62.468	-75.0732
14000.000000	62.117	97.5061
14300.000000	62.217	-17.3188
14500.000000	62.673	117.7412
14750.000000	63.588	-116.5635
15000.000000	64.616	9.2358
15250.000000	65.307	-177.3896
15500.000000	65.254	31.6660
15750.000000	64.308	-104.9033
16000.000000	62.642	115.9258
16250.000000	60.646	-68.1328
16500.000000	58.762	-56.5576
16750.000000	57.317	-96.1318
17000.000000	56.392	-151.9248
17250.000000	55.914	-42.3784
17500.000000	55.780	-63.3672
17750.000000	55.917	100.2363
18000.000000	56.261	49.5566
18250.000000	56.756	136.0098
18500.000000	57.366	117.1133
18750.000000	58.034	69.2969
19000.000000	58.681	57.7422
19250.000000	59.215	11.7344
19500.000000	59.533	49.9766
19750.000000	59.577	48.7188
