* Measurement data measured by REW V5.20.13
* Source: Microphone (2- USB Audio Device), MICROPHONE (Master Volume), L, volume: 0.250. Timing signal peak level -35.9 dBFS, measurement signal peak level -35.2 dBFS
* Format: 256k Log Swept Sine, 1 sweep at -12.0 dBFS using an acoustic timing reference
* Dated: 11-Sep-2023 12:19:01
* REW Settings:
*  C-weighting compensation: Off
*  Target level: 75.0 dB
* Note: 
* Measurement: Technics AZ80 Super Bass L
* Smoothing: 1/12 octave
* Frequency Step: 1/48 octave
* Start Frequency: 20.000 Hz
*
* Freq(Hz)	SPL(dB)	Phase(degrees)
20.000000	79.752	52.4916
20.299999	79.634	52.0361
20.600000	79.558	51.4252
20.900000	79.532	50.6604
21.200001	79.559	49.7367
21.400000	79.601	49.0426
21.799999	79.732	47.5421
22.000000	79.815	46.7932
22.400000	80.002	45.4453
22.700001	80.163	44.6637
23.000000	80.344	44.1202
23.299999	80.543	43.7820
23.600000	80.754	43.5970
24.000000	81.035	43.5126
24.299999	81.231	43.5419
24.700001	81.461	43.7105
25.000000	81.610	43.9413
25.400000	81.781	44.3657
25.799999	81.926	44.8472
26.200001	82.046	45.2901
26.500000	82.117	45.5545
26.900000	82.189	45.7907
27.200001	82.226	45.8743
27.600000	82.259	45.8577
28.000000	82.279	45.6932
28.500000	82.299	45.2862
29.000000	82.326	44.6817
29.500000	82.373	43.9172
30.000000	82.450	43.0348
30.400000	82.532	42.2731
30.700001	82.605	41.6851
31.100000	82.713	40.9035
31.500000	82.829	40.1551
32.000000	82.976	39.3211
32.500000	83.121	38.6519
33.000000	83.264	38.1586
33.500000	83.402	37.7953
34.000000	83.533	37.4807
34.500000	83.647	37.1432
35.000000	83.737	36.7497
35.500000	83.800	36.3050
36.000000	83.837	35.8376
36.500000	83.860	35.3690
37.000000	83.879	34.8869
37.500000	83.903	34.3489
38.200001	83.939	33.4372
38.700001	83.962	32.6889
39.500000	83.987	31.4644
40.000000	84.001	30.7457
40.599998	84.018	29.9527
41.200001	84.038	29.2300
41.799999	84.058	28.5641
42.500000	84.079	27.8368
43.099998	84.095	27.2280
43.700001	84.107	26.5964
44.400002	84.114	25.8006
45.000000	84.111	25.0809
45.500000	84.102	24.4853
46.200001	84.087	23.6923
46.799999	84.078	23.0528
47.500000	84.078	22.3275
48.200001	84.084	21.6053
48.700001	84.089	21.0985
49.400002	84.092	20.4298
50.000000	84.089	19.9072
50.799999	84.079	19.2485
51.500000	84.067	18.6547
52.200001	84.051	18.0339
53.000000	84.030	17.3292
53.799999	84.011	16.6585
54.500000	83.998	16.0992
55.200001	83.986	15.5664
56.000000	83.972	14.9957
57.000000	83.955	14.3294
58.000000	83.936	13.6786
59.000000	83.913	13.0100
60.000000	83.886	12.3145
60.799999	83.865	11.7479
61.500000	83.846	11.2562
62.200001	83.828	10.7797
63.000000	83.809	10.2678
64.000000	83.788	9.6867
65.000000	83.770	9.1389
66.000000	83.751	8.5625
67.000000	83.723	7.9329
68.000000	83.682	7.2692
69.000000	83.632	6.5975
70.000000	83.578	5.9522
71.000000	83.528	5.3622
72.000000	83.486	4.8221
73.000000	83.451	4.3117
74.000000	83.414	3.8206
75.000000	83.372	3.3477
76.199997	83.313	2.7994
77.500000	83.243	2.1933
78.800003	83.164	1.5643
80.000000	83.082	1.0166
81.199997	82.997	0.5367
82.500000	82.909	0.0746
83.800003	82.822	-0.3757
85.000000	82.735	-0.7877
86.199997	82.637	-1.1574
87.500000	82.525	-1.4929
88.500000	82.438	-1.7284
90.000000	82.305	-2.0704
91.199997	82.196	-2.3006
92.500000	82.083	-2.4814
93.800003	81.980	-2.6158
95.000000	81.887	-2.7177
96.199997	81.792	-2.7938
97.500000	81.683	-2.8290
98.800003	81.574	-2.8109
100.000000	81.480	-2.7664
101.500000	81.376	-2.7144
103.000000	81.276	-2.6797
104.400002	81.174	-2.6118
106.000000	81.046	-2.4346
107.500000	80.919	-2.1894
109.000000	80.792	-1.9179
110.599998	80.658	-1.6201
112.000000	80.545	-1.3309
113.800003	80.407	-0.8987
115.000000	80.318	-0.5851
117.199997	80.152	0.0093
118.000000	80.089	0.2295
120.599998	79.881	0.9718
122.000000	79.775	1.3973
124.099998	79.639	2.0516
125.000000	79.588	2.3349
126.500000	79.509	2.8202
128.000000	79.433	3.3222
131.500000	79.247	4.4730
132.000000	79.217	4.6305
134.000000	79.093	5.2635
136.000000	78.962	5.9456
138.000000	78.833	6.7047
140.000000	78.713	7.5230
143.000000	78.547	8.7879
145.000000	78.438	9.6480
147.500000	78.305	10.7397
150.000000	78.181	11.7886
152.500000	78.065	12.7881
155.000000	77.951	13.7957
157.500000	77.836	14.8428
160.000000	77.721	15.9401
162.500000	77.609	17.0652
165.000000	77.493	18.1792
167.500000	77.375	19.2691
170.000000	77.266	20.3304
172.500000	77.174	21.3815
175.000000	77.085	22.4660
177.500000	76.989	23.5827
180.000000	76.888	24.6743
182.500000	76.787	25.7187
185.000000	76.684	26.7634
187.500000	76.577	27.8382
190.000000	76.466	28.9421
192.500000	76.361	30.0896
195.000000	76.270	31.2853
197.500000	76.193	32.4913
200.000000	76.124	33.6698
203.000000	76.053	35.0577
206.000000	75.995	36.4665
209.000000	75.940	37.9020
212.000000	75.882	39.3241
214.000000	75.839	40.2545
218.000000	75.747	42.0793
220.000000	75.701	42.9781
224.000000	75.618	44.7760
227.000000	75.561	46.1481
230.000000	75.505	47.5360
233.000000	75.453	48.9346
236.000000	75.408	50.3589
240.000000	75.351	52.3004
243.000000	75.304	53.7424
247.000000	75.238	55.5675
250.000000	75.193	56.8630
254.000000	75.135	58.5443
258.000000	75.067	60.2114
262.000000	74.993	61.8606
265.000000	74.941	63.0821
269.000000	74.880	64.6801
272.000000	74.843	65.8306
276.000000	74.806	67.2934
280.000000	74.782	68.7302
285.000000	74.754	70.6119
290.000000	74.715	72.5656
295.000000	74.671	74.3960
300.000000	74.629	76.1720
304.000000	74.594	77.6355
307.000000	74.568	78.7485
311.000000	74.534	80.2309
315.000000	74.503	81.6941
320.000000	74.469	83.4746
325.000000	74.438	85.2025
330.000000	74.406	86.9139
335.000000	74.380	88.6499
340.000000	74.357	90.4066
345.000000	74.328	92.1495
350.000000	74.290	93.8487
355.000000	74.243	95.4921
360.000000	74.192	97.1067
365.000000	74.147	98.7508
370.000000	74.120	100.4535
375.000000	74.109	102.1500
382.000000	74.103	104.3952
387.000000	74.104	105.9590
395.000000	74.115	108.5450
400.000000	74.118	110.1853
406.000000	74.104	112.0441
412.000000	74.076	113.7278
418.000000	74.046	115.3346
425.000000	74.006	117.2304
431.000000	73.959	118.8820
437.000000	73.902	120.5433
444.000000	73.827	122.4819
450.000000	73.762	124.1420
455.000000	73.711	125.5223
462.000000	73.632	127.4264
468.000000	73.555	129.0009
475.000000	73.454	130.7774
482.000000	73.342	132.5558
487.000000	73.255	133.8443
494.000000	73.129	135.6805
500.000000	73.023	137.2880
508.000000	72.888	139.4973
515.000000	72.779	141.5111
522.000000	72.675	143.6169
530.000000	72.560	146.1582
538.000000	72.456	148.8419
545.000000	72.377	151.2996
552.000000	72.306	153.8363
560.000000	72.237	156.7539
570.000000	72.176	160.2953
580.000000	72.141	163.7149
590.000000	72.126	167.0984
600.000000	72.126	170.4541
608.000000	72.124	173.0678
615.000000	72.123	175.2861
622.000000	72.132	177.4605
630.000000	72.159	179.9319
640.000000	72.210	-176.9773
650.000000	72.271	-173.8624
660.000000	72.334	-170.7253
670.000000	72.383	-167.6137
680.000000	72.413	-164.5537
690.000000	72.447	-161.5510
700.000000	72.497	-158.6263
710.000000	72.553	-155.7694
720.000000	72.601	-152.9261
730.000000	72.640	-150.0926
740.000000	72.681	-147.3243
750.000000	72.732	-144.6443
762.000000	72.802	-141.4636
775.000000	72.878	-138.0010
788.000000	72.956	-134.6180
800.000000	73.028	-131.5710
812.000000	73.100	-128.5732
825.000000	73.186	-125.4124
838.000000	73.284	-122.3303
850.000000	73.385	-119.4590
862.000000	73.487	-116.4792
875.000000	73.597	-113.1322
885.000000	73.683	-110.5367
900.000000	73.819	-106.7525
912.000000	73.928	-103.8871
925.000000	74.037	-100.9162
938.000000	74.138	-98.0322
950.000000	74.232	-95.4471
962.000000	74.325	-92.9226
975.000000	74.418	-90.2148
988.000000	74.495	-87.5072
1000.000000	74.550	-85.0181
1015.000000	74.603	-81.9617
1030.000000	74.645	-78.9730
1044.000000	74.683	-76.1770
1060.000000	74.717	-72.9008
1075.000000	74.739	-69.7715
1090.000000	74.749	-66.6227
1106.000000	74.748	-63.2604
1120.000000	74.744	-60.3094
1138.000000	74.750	-56.4702
1150.000000	74.763	-53.8723
1172.000000	74.805	-49.0116
1180.000000	74.825	-47.2221
1206.000000	74.883	-41.4763
1220.000000	74.912	-38.4428
1241.000000	74.967	-33.9051
1250.000000	75.000	-31.9545
1265.000000	75.067	-28.7019
1280.000000	75.148	-25.4540
1315.000000	75.330	-17.8406
1320.000000	75.348	-16.7421
1340.000000	75.396	-12.3071
1360.000000	75.415	-7.8223
1380.000000	75.416	-3.3568
1400.000000	75.398	0.9826
1430.000000	75.355	7.1741
1450.000000	75.351	11.1945
1475.000000	75.402	16.1843
1500.000000	75.499	21.1005
1525.000000	75.606	25.8763
1550.000000	75.709	30.4886
1575.000000	75.810	34.9705
1600.000000	75.908	39.3813
1625.000000	76.003	43.7623
1650.000000	76.108	48.1937
1675.000000	76.231	52.8110
1700.000000	76.363	57.7213
1725.000000	76.492	62.7958
1750.000000	76.610	67.8247
1775.000000	76.723	72.7428
1800.000000	76.841	77.5588
1825.000000	76.961	82.3102
1850.000000	77.076	86.9985
1875.000000	77.189	91.5811
1900.000000	77.301	96.0517
1925.000000	77.409	100.4903
1950.000000	77.514	105.0319
1975.000000	77.621	109.7651
2000.000000	77.734	114.6617
2030.000000	77.874	120.6087
2060.000000	78.012	126.4941
2090.000000	78.147	132.2696
2120.000000	78.277	137.9620
2140.000000	78.360	141.7391
2180.000000	78.522	149.3126
2200.000000	78.599	153.0884
2240.000000	78.742	160.4222
2270.000000	78.847	165.6385
2300.000000	78.948	170.6484
2330.000000	79.041	175.4994
2360.000000	79.130	-179.7996
2400.000000	79.239	-173.7939
2430.000000	79.308	-169.5143
2470.000000	79.377	-164.0876
2500.000000	79.414	-160.1393
2540.000000	79.451	-154.8218
2580.000000	79.479	-149.3008
2620.000000	79.491	-143.6854
2650.000000	79.482	-139.5006
2690.000000	79.448	-133.9057
2720.000000	79.413	-129.5602
2760.000000	79.355	-123.3687
2800.000000	79.287	-116.6866
2850.000000	79.201	-107.8472
2900.000000	79.130	-98.7125
2950.000000	79.083	-89.3777
3000.000000	79.063	-79.9285
3040.000000	79.062	-72.3204
3070.000000	79.064	-66.5757
3110.000000	79.059	-58.9050
3150.000000	79.038	-51.3219
3200.000000	78.983	-42.1208
3250.000000	78.901	-33.2887
3300.000000	78.803	-24.7585
3350.000000	78.698	-16.4572
3400.000000	78.588	-8.4896
3450.000000	78.462	-1.0290
3500.000000	78.324	5.9524
3550.000000	78.185	12.7396
3600.000000	78.058	19.6179
3650.000000	77.950	26.6445
3700.000000	77.854	33.7167
3750.000000	77.763	40.7866
3820.000000	77.641	50.9786
3870.000000	77.565	58.8102
3950.000000	77.472	72.4276
4000.000000	77.421	81.2441
4060.000000	77.354	91.6354
4120.000000	77.267	101.6378
4180.000000	77.162	111.3893
4250.000000	77.025	122.8372
4310.000000	76.907	132.9331
4370.000000	76.803	143.2179
4440.000000	76.710	155.1849
4500.000000	76.665	165.3079
4550.000000	76.655	173.6525
4620.000000	76.673	-174.7532
4680.000000	76.706	-164.9104
4750.000000	76.760	-153.7444
4820.000000	76.825	-143.1992
4870.000000	76.874	-136.0880
4940.000000	76.941	-126.5212
5000.000000	76.999	-118.3838
5080.000000	77.087	-107.2634
5150.000000	77.176	-97.2866
5220.000000	77.270	-87.2739
5300.000000	77.372	-76.0018
5380.000000	77.463	-64.9866
5450.000000	77.534	-55.4395
5520.000000	77.604	-45.8207
5600.000000	77.692	-34.6913
5700.000000	77.821	-20.7489
5800.000000	77.986	-7.0552
5900.000000	78.202	6.0876
6000.000000	78.468	18.5912
6080.000000	78.706	28.2566
6150.000000	78.921	36.5945
6220.000000	79.135	44.8976
6300.000000	79.371	54.3347
6400.000000	79.639	65.9429
6500.000000	79.873	77.3391
6600.000000	80.072	88.6831
6700.000000	80.238	100.0459
6800.000000	80.360	111.2375
6900.000000	80.427	122.0021
7000.000000	80.435	132.2480
7100.000000	80.397	142.0618
7200.000000	80.335	151.5559
7300.000000	80.252	160.7031
7400.000000	80.147	169.5673
7500.000000	80.034	178.4351
7620.000000	79.901	-170.6798
7750.000000	79.745	-158.5250
7880.000000	79.574	-145.6948
8000.000000	79.426	-133.1636
8120.000000	79.334	-120.3463
8250.000000	79.346	-106.6992
8380.000000	79.504	-93.6671
8500.000000	79.773	-82.4501
8620.000000	80.113	-72.3197
8750.000000	80.496	-62.8667
8850.000000	80.766	-56.7599
9000.000000	81.080	-49.4861
9120.000000	81.213	-45.1826
9250.000000	81.222	-41.6305
9380.000000	81.092	-38.6910
9500.000000	80.844	-36.3210
9620.000000	80.473	-34.1990
9750.000000	79.943	-31.8096
9880.000000	79.306	-28.7843
10000.000000	78.647	-25.2773
10150.000000	77.761	-20.4768
10300.000000	76.834	-16.1211
10440.000000	75.955	-12.8679
10600.000000	74.954	-9.7296
10750.000000	74.041	-6.4078
10900.000000	73.186	-2.0168
11060.000000	72.352	3.7303
11200.000000	71.690	9.0952
11380.000000	70.919	15.5558
11500.000000	70.446	19.3350
11720.000000	69.669	25.5146
11800.000000	69.425	27.6815
12060.000000	68.783	34.5460
12200.000000	68.525	37.8956
12410.000000	68.239	42.3235
12500.000000	68.147	44.1305
12650.000000	68.019	47.3668
12800.000000	67.913	51.2585
13150.000000	67.763	63.1620
13200.000000	67.752	64.9865
13400.000000	67.751	71.8540
13600.000000	67.877	77.5968
13800.000000	68.219	82.2592
14000.000000	68.796	86.2230
14300.000000	70.015	91.0353
14500.000000	70.920	92.1649
14750.000000	71.919	88.5166
15000.000000	72.539	78.2404
15250.000000	72.577	63.3741
15500.000000	71.961	48.0355
15750.000000	70.799	35.3510
16000.000000	69.351	25.9471
16250.000000	67.919	19.1101
16500.000000	66.718	13.7551
16750.000000	65.842	8.0397
17000.000000	65.320	-2.8574
17250.000000	65.124	-30.3833
17500.000000	65.209	-91.5955
17750.000000	65.521	168.8339
18000.000000	65.942	57.3961
18250.000000	66.298	-46.7415
18500.000000	66.431	-167.9409
18750.000000	66.235	19.7051
19000.000000	65.681	154.2180
19250.000000	64.835	-97.4829
19500.000000	63.834	17.7305
19750.000000	62.871	175.5611
