* Measurement data measured by REW V5.20.13
* Source: Microphone (2- USB Audio Device), MICROPHONE (Master Volume), L, volume: 0.250. Timing signal peak level -35.9 dBFS, measurement signal peak level -35.7 dBFS
* Format: 256k Log Swept Sine, 1 sweep at -12.0 dBFS using an acoustic timing reference
* Dated: 11-Sep-2023 12:16:00
* REW Settings:
*  C-weighting compensation: Off
*  Target level: 75.0 dB
* Note: 
* Measurement: Technics AZ80 Dynamic R
* Smoothing: 1/12 octave
* Frequency Step: 1/48 octave
* Start Frequency: 20.000 Hz
*
* Freq(Hz)	SPL(dB)	Phase(degrees)
20.000000	76.733	36.3406
20.299999	76.575	35.8161
20.600000	76.495	35.0485
20.900000	76.487	34.0261
21.200001	76.538	32.7911
21.400000	76.595	31.9071
21.799999	76.747	30.1461
22.000000	76.837	29.3565
22.400000	77.040	28.1255
22.700001	77.215	27.5712
23.000000	77.413	27.3207
23.299999	77.628	27.2924
23.600000	77.847	27.4074
24.000000	78.124	27.6933
24.299999	78.304	27.9908
24.700001	78.498	28.5268
25.000000	78.613	29.0426
25.400000	78.735	29.8392
25.799999	78.828	30.6475
26.200001	78.893	31.3538
26.500000	78.921	31.7817
26.900000	78.934	32.2074
27.200001	78.931	32.4161
27.600000	78.919	32.5328
28.000000	78.908	32.4380
28.500000	78.909	32.0051
29.000000	78.933	31.2663
29.500000	78.993	30.3003
30.000000	79.093	29.1929
30.400000	79.199	28.2653
30.700001	79.291	27.5782
31.100000	79.427	26.7161
31.500000	79.573	25.9476
32.000000	79.764	25.1406
32.500000	79.957	24.4945
33.000000	80.139	23.9747
33.500000	80.304	23.5399
34.000000	80.447	23.1407
34.500000	80.567	22.7250
35.000000	80.662	22.2482
35.500000	80.737	21.6774
36.000000	80.795	20.9995
36.500000	80.843	20.2122
37.000000	80.889	19.3122
37.500000	80.934	18.3006
38.200001	80.997	16.7501
38.700001	81.042	15.6193
39.500000	81.124	13.8914
40.000000	81.184	12.8701
40.599998	81.258	11.6922
41.200001	81.325	10.5786
41.799999	81.382	9.5500
42.500000	81.436	8.4443
43.099998	81.472	7.5268
43.700001	81.499	6.5880
44.400002	81.515	5.4457
45.000000	81.516	4.4464
45.500000	81.512	3.6203
46.200001	81.504	2.4830
46.799999	81.500	1.5194
47.500000	81.496	0.4117
48.200001	81.492	-0.6445
48.700001	81.489	-1.3469
49.400002	81.486	-2.2547
50.000000	81.483	-2.9849
50.799999	81.474	-3.9375
51.500000	81.462	-4.7845
52.200001	81.448	-5.6553
53.000000	81.431	-6.6617
53.799999	81.414	-7.6449
54.500000	81.401	-8.4712
55.200001	81.388	-9.2671
56.000000	81.372	-10.1439
57.000000	81.349	-11.2051
58.000000	81.322	-12.2678
59.000000	81.292	-13.3728
60.000000	81.259	-14.5268
60.799999	81.232	-15.4653
61.500000	81.209	-16.2742
62.200001	81.187	-17.0519
63.000000	81.165	-17.8938
64.000000	81.144	-18.8968
65.000000	81.122	-19.8800
66.000000	81.094	-20.8528
67.000000	81.063	-21.8297
68.000000	81.028	-22.8357
69.000000	80.988	-23.8676
70.000000	80.945	-24.8979
71.000000	80.900	-25.8954
72.000000	80.854	-26.8481
73.000000	80.805	-27.7644
74.000000	80.751	-28.6521
75.000000	80.691	-29.5228
76.199997	80.618	-30.5831
77.500000	80.538	-31.7849
78.800003	80.454	-33.0150
80.000000	80.374	-34.1398
81.199997	80.289	-35.2380
82.500000	80.193	-36.3751
83.800003	80.096	-37.4421
85.000000	80.011	-38.3753
86.199997	79.930	-39.2796
87.500000	79.843	-40.2490
88.500000	79.775	-40.9973
90.000000	79.664	-42.1143
91.199997	79.569	-42.9747
92.500000	79.464	-43.8594
93.800003	79.359	-44.6875
95.000000	79.260	-45.3883
96.199997	79.157	-46.0321
97.500000	79.042	-46.6803
98.800003	78.926	-47.3048
100.000000	78.822	-47.8958
101.500000	78.699	-48.6792
103.000000	78.577	-49.4763
104.400002	78.463	-50.1744
106.000000	78.334	-50.9047
107.500000	78.219	-51.5750
109.000000	78.107	-52.2729
110.599998	77.988	-53.0310
112.000000	77.886	-53.6792
113.800003	77.756	-54.4420
115.000000	77.671	-54.8791
117.199997	77.525	-55.5622
118.000000	77.476	-55.8005
120.599998	77.316	-56.6422
122.000000	77.227	-57.1348
124.099998	77.091	-57.8518
125.000000	77.034	-58.1313
126.500000	76.941	-58.5385
128.000000	76.853	-58.8682
131.500000	76.658	-59.5835
132.000000	76.630	-59.7037
134.000000	76.513	-60.2192
136.000000	76.395	-60.7290
138.000000	76.282	-61.2037
140.000000	76.176	-61.6583
143.000000	76.033	-62.3549
145.000000	75.947	-62.8000
147.500000	75.843	-63.1856
150.000000	75.746	-63.3639
152.500000	75.653	-63.5211
155.000000	75.554	-63.7179
157.500000	75.455	-63.9254
160.000000	75.361	-64.1689
162.500000	75.269	-64.4592
165.000000	75.184	-64.7307
167.500000	75.111	-64.9293
170.000000	75.044	-65.0960
172.500000	74.967	-65.2843
175.000000	74.877	-65.5145
177.500000	74.783	-65.7630
180.000000	74.696	-66.0122
182.500000	74.610	-66.2625
185.000000	74.514	-66.5040
187.500000	74.409	-66.7207
190.000000	74.306	-66.9091
192.500000	74.216	-67.0702
195.000000	74.139	-67.1924
197.500000	74.073	-67.2668
200.000000	74.017	-67.3194
203.000000	73.963	-67.4063
206.000000	73.921	-67.5280
209.000000	73.893	-67.6490
212.000000	73.871	-67.7151
214.000000	73.856	-67.7249
218.000000	73.817	-67.7718
220.000000	73.793	-67.8382
224.000000	73.740	-68.0207
227.000000	73.705	-68.2065
230.000000	73.673	-68.4232
233.000000	73.640	-68.5971
236.000000	73.605	-68.6936
240.000000	73.568	-68.7999
243.000000	73.549	-68.9423
247.000000	73.526	-69.2309
250.000000	73.504	-69.4668
254.000000	73.478	-69.7249
258.000000	73.463	-69.9329
262.000000	73.459	-70.1462
265.000000	73.460	-70.3231
269.000000	73.463	-70.5898
272.000000	73.468	-70.8134
276.000000	73.474	-71.1169
280.000000	73.479	-71.3953
285.000000	73.475	-71.7440
290.000000	73.459	-72.1553
295.000000	73.440	-72.5980
300.000000	73.430	-73.0320
304.000000	73.432	-73.3674
307.000000	73.438	-73.6140
311.000000	73.453	-73.9297
315.000000	73.470	-74.2275
320.000000	73.480	-74.5611
325.000000	73.478	-74.8382
330.000000	73.480	-75.1091
335.000000	73.484	-75.4398
340.000000	73.487	-75.8895
345.000000	73.486	-76.3962
350.000000	73.482	-76.8721
355.000000	73.477	-77.3292
360.000000	73.477	-77.7752
365.000000	73.479	-78.1769
370.000000	73.483	-78.5163
375.000000	73.488	-78.8428
382.000000	73.499	-79.3462
387.000000	73.515	-79.7378
395.000000	73.563	-80.4617
400.000000	73.599	-80.9562
406.000000	73.627	-81.5301
412.000000	73.639	-82.0649
418.000000	73.652	-82.6170
425.000000	73.694	-83.3556
431.000000	73.739	-84.0280
437.000000	73.765	-84.7041
444.000000	73.765	-85.5106
450.000000	73.754	-86.2205
455.000000	73.746	-86.8170
462.000000	73.746	-87.6598
468.000000	73.750	-88.3881
475.000000	73.753	-89.2099
482.000000	73.749	-89.9779
487.000000	73.744	-90.5053
494.000000	73.729	-91.2203
500.000000	73.706	-91.7867
508.000000	73.674	-92.4445
515.000000	73.655	-92.9474
522.000000	73.646	-93.4252
530.000000	73.641	-93.9930
538.000000	73.633	-94.5860
545.000000	73.621	-95.1178
552.000000	73.610	-95.6577
560.000000	73.599	-96.2662
570.000000	73.594	-97.0167
580.000000	73.607	-97.8851
590.000000	73.632	-98.8989
600.000000	73.664	-99.8756
608.000000	73.695	-100.6055
615.000000	73.721	-101.2507
622.000000	73.745	-101.9171
630.000000	73.773	-102.6914
640.000000	73.811	-103.6487
650.000000	73.857	-104.6106
660.000000	73.906	-105.6476
670.000000	73.944	-106.7993
680.000000	73.965	-108.0243
690.000000	73.981	-109.2833
700.000000	74.003	-110.6401
710.000000	74.021	-112.1245
720.000000	74.025	-113.6608
730.000000	74.017	-115.1491
740.000000	74.007	-116.5442
750.000000	73.992	-117.8699
762.000000	73.970	-119.4144
775.000000	73.954	-120.9975
788.000000	73.948	-122.3895
800.000000	73.947	-123.4562
812.000000	73.950	-124.3446
825.000000	73.958	-125.1736
838.000000	73.964	-125.8682
850.000000	73.967	-126.3882
862.000000	73.972	-126.8204
875.000000	73.983	-127.2681
885.000000	73.996	-127.6451
900.000000	74.015	-128.2581
912.000000	74.034	-128.7543
925.000000	74.061	-129.2793
938.000000	74.095	-129.7912
950.000000	74.129	-130.2441
962.000000	74.159	-130.6870
975.000000	74.189	-131.2108
988.000000	74.216	-131.7916
1000.000000	74.238	-132.3192
1015.000000	74.258	-132.9256
1030.000000	74.268	-133.5103
1044.000000	74.269	-134.0615
1060.000000	74.272	-134.6833
1075.000000	74.284	-135.2139
1090.000000	74.310	-135.6860
1106.000000	74.351	-136.1835
1120.000000	74.390	-136.6778
1138.000000	74.431	-137.4220
1150.000000	74.450	-137.9631
1172.000000	74.482	-138.9083
1180.000000	74.501	-139.1813
1206.000000	74.605	-139.7365
1220.000000	74.675	-139.9610
1241.000000	74.784	-140.3740
1250.000000	74.834	-140.5671
1265.000000	74.925	-140.8645
1280.000000	75.023	-141.0901
1315.000000	75.250	-141.3602
1320.000000	75.278	-141.3837
1340.000000	75.366	-141.4589
1360.000000	75.416	-141.5777
1380.000000	75.430	-141.8792
1400.000000	75.425	-142.4165
1430.000000	75.434	-143.5408
1450.000000	75.469	-144.3597
1475.000000	75.541	-145.3804
1500.000000	75.634	-146.4311
1525.000000	75.738	-147.6361
1550.000000	75.858	-149.0771
1575.000000	75.990	-150.5755
1600.000000	76.134	-151.9435
1625.000000	76.289	-153.1893
1650.000000	76.435	-154.3592
1675.000000	76.563	-155.4990
1700.000000	76.683	-156.5931
1725.000000	76.807	-157.5361
1750.000000	76.941	-158.2842
1775.000000	77.080	-158.9390
1800.000000	77.219	-159.6671
1825.000000	77.356	-160.6080
1850.000000	77.490	-161.8568
1875.000000	77.616	-163.4431
1900.000000	77.734	-165.3122
1925.000000	77.847	-167.3472
1950.000000	77.962	-169.4078
1975.000000	78.086	-171.3671
2000.000000	78.221	-173.1617
2030.000000	78.391	-175.1687
2060.000000	78.556	-177.2137
2090.000000	78.712	-179.3928
2120.000000	78.863	178.3823
2140.000000	78.964	176.9287
2180.000000	79.172	174.1418
2200.000000	79.275	172.7898
2240.000000	79.472	170.0487
2270.000000	79.605	167.8832
2300.000000	79.728	165.6436
2330.000000	79.849	163.3965
2360.000000	79.972	161.1415
2400.000000	80.139	157.9969
2430.000000	80.253	155.3990
2470.000000	80.373	151.5358
2500.000000	80.445	148.4609
2540.000000	80.528	144.3609
2580.000000	80.601	140.3480
2620.000000	80.663	136.3279
2650.000000	80.696	133.2342
2690.000000	80.721	128.9966
2720.000000	80.728	125.7868
2760.000000	80.727	121.5534
2800.000000	80.720	117.4372
2850.000000	80.712	112.4698
2900.000000	80.695	107.5572
2950.000000	80.654	102.5027
3000.000000	80.602	97.3576
3040.000000	80.563	93.3743
3070.000000	80.535	90.5032
3110.000000	80.493	86.7592
3150.000000	80.447	83.0278
3200.000000	80.384	78.3545
3250.000000	80.309	73.7989
3300.000000	80.222	69.5848
3350.000000	80.131	65.7509
3400.000000	80.031	62.0859
3450.000000	79.918	58.4002
3500.000000	79.800	54.7481
3550.000000	79.685	51.3356
3600.000000	79.578	48.3220
3650.000000	79.478	45.7079
3700.000000	79.387	43.3215
3750.000000	79.300	40.9221
3820.000000	79.190	37.3996
3870.000000	79.125	34.9581
3950.000000	79.028	31.4994
4000.000000	78.958	29.6670
4060.000000	78.870	27.8395
4120.000000	78.784	26.2814
4180.000000	78.688	24.6356
4250.000000	78.554	22.2302
4310.000000	78.438	19.7585
4370.000000	78.342	17.0530
4440.000000	78.269	13.7111
4500.000000	78.236	10.7307
4550.000000	78.228	8.1802
4620.000000	78.240	4.5226
4680.000000	78.265	1.3768
4750.000000	78.311	-2.1372
4820.000000	78.374	-5.4429
4870.000000	78.424	-7.7938
4940.000000	78.491	-11.1840
5000.000000	78.544	-14.0652
5080.000000	78.618	-17.5490
5150.000000	78.689	-20.2434
5220.000000	78.760	-22.9180
5300.000000	78.839	-26.3145
5380.000000	78.909	-30.0653
5450.000000	78.962	-33.3900
5520.000000	79.020	-36.6030
5600.000000	79.107	-40.2678
5700.000000	79.240	-45.3337
5800.000000	79.394	-51.2043
5900.000000	79.591	-57.4485
6000.000000	79.855	-63.4872
6080.000000	80.100	-68.2089
6150.000000	80.318	-72.4844
6220.000000	80.528	-77.0099
6300.000000	80.757	-82.4877
6400.000000	81.022	-89.6701
6500.000000	81.261	-97.0736
6600.000000	81.464	-104.5762
6700.000000	81.622	-112.0994
6800.000000	81.725	-119.6981
6900.000000	81.766	-127.3575
7000.000000	81.750	-134.8758
7100.000000	81.683	-142.0072
7200.000000	81.583	-148.5143
7300.000000	81.467	-154.3391
7400.000000	81.344	-159.6907
7500.000000	81.224	-164.8058
7620.000000	81.086	-170.6317
7750.000000	80.931	-175.8795
7880.000000	80.761	-179.0947
8000.000000	80.606	179.8311
8120.000000	80.505	179.8999
8250.000000	80.511	-179.9942
8380.000000	80.664	178.7422
8500.000000	80.919	175.7813
8620.000000	81.252	171.5993
8750.000000	81.656	166.7650
8850.000000	81.965	163.3228
9000.000000	82.372	158.7675
9120.000000	82.610	155.4190
9250.000000	82.746	151.6088
9380.000000	82.726	147.1495
9500.000000	82.557	142.3501
9620.000000	82.243	137.2335
9750.000000	81.758	132.1691
9880.000000	81.155	128.4592
10000.000000	80.520	126.5333
10150.000000	79.662	125.9380
10300.000000	78.774	126.7006
10440.000000	77.936	127.9278
10600.000000	76.985	129.6407
10750.000000	76.127	132.0652
10900.000000	75.330	135.6068
11060.000000	74.554	139.9349
11200.000000	73.931	143.2953
11380.000000	73.201	146.3662
11500.000000	72.760	147.7206
11720.000000	72.057	149.6300
11800.000000	71.839	150.3543
12060.000000	71.265	153.2166
12200.000000	71.028	155.1492
12410.000000	70.762	158.5823
12500.000000	70.677	160.1038
12650.000000	70.566	162.3627
12800.000000	70.487	164.0101
13150.000000	70.374	166.0168
13200.000000	70.363	166.2614
13400.000000	70.352	167.3642
13600.000000	70.467	168.5757
13800.000000	70.801	169.6150
14000.000000	71.364	169.9202
14300.000000	72.562	168.0065
14500.000000	73.486	165.2723
14750.000000	74.553	160.6736
15000.000000	75.265	154.5639
15250.000000	75.396	146.8209
15500.000000	74.852	138.6771
15750.000000	73.721	131.9561
16000.000000	72.241	127.5329
16250.000000	70.707	125.3823
16500.000000	69.358	125.3333
16750.000000	68.329	127.5092
17000.000000	67.664	131.5354
17250.000000	67.329	135.7581
17500.000000	67.253	137.6971
17750.000000	67.382	135.5452
18000.000000	67.660	128.4200
18250.000000	67.948	113.3723
18500.000000	68.059	80.9060
18750.000000	67.863	13.0026
19000.000000	67.322	-107.9485
19250.000000	66.490	85.6907
19500.000000	65.472	-84.0249
19750.000000	64.439	148.9287
