* Measurement data measured by REW V5.20.13
* Source: Microphone (2- USB Audio Device), MICROPHONE (Master Volume), L, volume: 0.250. Timing signal peak level -38.8 dBFS, measurement signal peak level -36.6 dBFS
* Format: 256k Log Swept Sine, 1 sweep at -12.0 dBFS using an acoustic timing reference
* Dated: 11-Jul-2023 15:14:39
* REW Settings:
*  C-weighting compensation: Off
*  Target level: 75.0 dB
* Note: 
* Measurement: TrueFree T3 R
* Smoothing: 1/12 octave
* Frequency Step: 1/48 octave
* Start Frequency: 20.000 Hz
*
* Freq(Hz)	SPL(dB)	Phase(degrees)
20.000000	62.129	154.5161
20.299999	61.738	165.9436
20.600000	61.387	177.9417
20.900000	61.126	-170.0005
21.200001	60.924	-158.3308
21.400000	60.784	-150.7352
21.799999	60.472	-135.7599
22.000000	60.299	-128.3262
22.400000	59.933	-113.6498
22.700001	59.613	-102.8438
23.000000	59.199	-91.8176
23.299999	58.697	-79.9075
23.600000	58.198	-66.9462
24.000000	57.735	-48.8149
24.299999	57.597	-35.8756
24.700001	57.500	-20.6021
25.000000	57.285	-10.0253
25.400000	56.678	5.1292
25.799999	55.918	23.4956
26.200001	55.506	44.0344
26.500000	55.564	58.7401
26.900000	55.875	75.3663
27.200001	55.988	85.7578
27.600000	55.791	98.9254
28.000000	55.319	113.8237
28.500000	54.865	134.8079
29.000000	54.799	154.3975
29.500000	54.641	171.3091
30.000000	54.106	-171.1873
30.400000	53.648	-155.7185
30.700001	53.444	-144.2200
31.100000	53.302	-130.6688
31.500000	53.055	-119.3110
32.000000	52.253	-105.6373
32.500000	50.817	-88.6707
33.000000	48.939	-66.1676
33.500000	46.985	-38.1494
34.000000	45.583	-6.1360
34.500000	45.472	26.9614
35.000000	46.626	57.6870
35.500000	48.190	82.8448
36.000000	49.482	101.2478
36.500000	50.273	114.3015
37.000000	50.592	124.8359
37.500000	50.585	134.7108
38.200001	50.230	147.8457
38.700001	49.744	156.3313
39.500000	48.588	167.6241
40.000000	47.758	171.7206
40.599998	46.743	171.5945
41.200001	45.678	166.3827
41.799999	44.796	159.2018
42.500000	44.831	151.7179
43.099998	45.849	146.1249
43.700001	47.011	140.8606
44.400002	47.998	136.2810
45.000000	48.500	134.7589
45.500000	48.756	135.0217
46.200001	48.950	136.5923
46.799999	49.008	138.2067
47.500000	49.062	140.1321
48.200001	49.323	141.8186
48.700001	49.696	142.2321
49.400002	50.315	140.7946
50.000000	50.723	137.9966
50.799999	50.965	134.1110
51.500000	50.996	132.0176
52.200001	50.992	130.9414
53.000000	50.971	129.7794
53.799999	50.905	128.1284
54.500000	50.884	126.5228
55.200001	51.047	124.7991
56.000000	51.510	122.2438
57.000000	52.233	118.1204
58.000000	52.743	114.7760
59.000000	53.004	114.7098
60.000000	53.309	117.4384
60.799999	53.573	119.0354
61.500000	53.651	119.2390
62.200001	53.560	119.0276
63.000000	53.425	119.0394
64.000000	53.539	118.9084
65.000000	53.960	117.5210
66.000000	54.418	115.5289
67.000000	54.808	114.4089
68.000000	55.137	114.1556
69.000000	55.301	113.7363
70.000000	55.212	112.8766
71.000000	54.940	111.7389
72.000000	54.638	110.2146
73.000000	54.443	108.3254
74.000000	54.464	106.3497
75.000000	54.738	104.4650
76.199997	55.270	102.0996
77.500000	55.785	99.2631
78.800003	56.035	96.8317
80.000000	56.037	95.5112
81.199997	55.906	95.0941
82.500000	55.756	95.2861
83.800003	55.765	95.2174
85.000000	55.917	94.0116
86.199997	56.100	91.9858
87.500000	56.280	89.9229
88.500000	56.397	88.8782
90.000000	56.549	88.2501
91.199997	56.655	87.7578
92.500000	56.705	86.5432
93.800003	56.707	84.7290
95.000000	56.720	82.8027
96.199997	56.752	80.9932
97.500000	56.774	79.6268
98.800003	56.761	79.0890
100.000000	56.721	79.0435
101.500000	56.649	78.8770
103.000000	56.598	77.9329
104.400002	56.584	76.2213
106.000000	56.565	73.8943
107.500000	56.522	72.3757
109.000000	56.512	71.8445
110.599998	56.569	71.8419
112.000000	56.655	71.8624
113.800003	56.757	71.5410
115.000000	56.774	71.0746
117.199997	56.669	69.9919
118.000000	56.606	69.5468
120.599998	56.406	67.7505
122.000000	56.334	66.7383
124.099998	56.325	65.3805
125.000000	56.352	64.7683
126.500000	56.400	63.6104
128.000000	56.404	62.3352
131.500000	56.114	60.8958
132.000000	56.064	61.0007
134.000000	55.932	61.7854
136.000000	55.900	62.5332
138.000000	55.922	62.7506
140.000000	55.932	62.2607
143.000000	55.867	61.2780
145.000000	55.807	61.1794
147.500000	55.735	61.4886
150.000000	55.632	61.0504
152.500000	55.453	59.6609
155.000000	55.254	58.7642
157.500000	55.143	59.5625
160.000000	55.164	61.2715
162.500000	55.219	62.4042
165.000000	55.223	62.4651
167.500000	55.173	62.2180
170.000000	55.106	62.8180
172.500000	55.064	64.4664
175.000000	55.040	66.1399
177.500000	54.996	67.0305
180.000000	54.960	67.2721
182.500000	54.977	67.2939
185.000000	55.019	67.5026
187.500000	55.050	68.1957
190.000000	55.077	69.1903
192.500000	55.108	70.0701
195.000000	55.134	70.6559
197.500000	55.155	71.1189
200.000000	55.183	71.7112
203.000000	55.272	72.6469
206.000000	55.442	73.5479
209.000000	55.661	74.4541
212.000000	55.897	75.6442
214.000000	56.040	76.5967
218.000000	56.258	78.6001
220.000000	56.327	79.3794
224.000000	56.402	80.1243
227.000000	56.467	80.1947
230.000000	56.580	80.0792
233.000000	56.741	79.8594
236.000000	56.916	79.6492
240.000000	57.090	79.9373
243.000000	57.163	80.6719
247.000000	57.241	81.8436
250.000000	57.327	82.6859
254.000000	57.504	83.5692
258.000000	57.708	83.9128
262.000000	57.848	83.9216
265.000000	57.889	83.9919
269.000000	57.919	84.3802
272.000000	57.956	84.7781
276.000000	58.021	85.2422
280.000000	58.169	85.5087
285.000000	58.529	85.6040
290.000000	58.823	85.9303
295.000000	58.913	86.4718
300.000000	59.013	86.9941
304.000000	59.179	87.3468
307.000000	59.311	87.5392
311.000000	59.444	87.7196
315.000000	59.532	87.8807
320.000000	59.638	87.9945
325.000000	59.814	87.9214
330.000000	60.072	87.8087
335.000000	60.343	87.9194
340.000000	60.543	88.0695
345.000000	60.637	88.0066
350.000000	60.676	87.8945
355.000000	60.721	87.8712
360.000000	60.794	87.9373
365.000000	60.890	88.0002
370.000000	61.003	88.0408
375.000000	61.103	88.2119
382.000000	61.212	88.9304
387.000000	61.303	89.5959
395.000000	61.530	90.2046
400.000000	61.700	90.1584
406.000000	61.851	89.9556
412.000000	61.924	90.0876
418.000000	61.983	90.4456
425.000000	62.109	90.5908
431.000000	62.230	90.4547
437.000000	62.330	90.2394
444.000000	62.431	90.0850
450.000000	62.499	90.0150
455.000000	62.535	89.9414
462.000000	62.561	89.8684
468.000000	62.587	90.0199
475.000000	62.629	90.4950
482.000000	62.695	91.0950
487.000000	62.759	91.6079
494.000000	62.858	92.4528
500.000000	62.946	93.1436
508.000000	63.084	93.8533
515.000000	63.197	94.3842
522.000000	63.262	94.8882
530.000000	63.287	95.3759
538.000000	63.320	95.8512
545.000000	63.397	96.3079
552.000000	63.517	96.7045
560.000000	63.674	97.0255
570.000000	63.856	97.4744
580.000000	63.986	98.0033
590.000000	64.096	98.5271
600.000000	64.228	99.0963
608.000000	64.354	99.5607
615.000000	64.460	99.9619
622.000000	64.553	100.3198
630.000000	64.653	100.6073
640.000000	64.791	100.8918
650.000000	64.940	101.4331
660.000000	65.072	102.2397
670.000000	65.181	103.0315
680.000000	65.280	103.6472
690.000000	65.386	104.0405
700.000000	65.492	104.2793
710.000000	65.603	104.6055
720.000000	65.711	105.1162
730.000000	65.806	105.6978
740.000000	65.900	106.2344
750.000000	66.017	106.6753
762.000000	66.189	107.4022
775.000000	66.378	108.6348
788.000000	66.563	109.7883
800.000000	66.745	110.6042
812.000000	66.951	111.3188
825.000000	67.170	112.0619
838.000000	67.333	112.7324
850.000000	67.463	113.3658
862.000000	67.619	114.1085
875.000000	67.820	115.0717
885.000000	67.987	115.8591
900.000000	68.225	116.9602
912.000000	68.390	117.8295
925.000000	68.551	118.9163
938.000000	68.686	120.1392
950.000000	68.799	121.1694
962.000000	68.931	121.8401
975.000000	69.108	122.0989
988.000000	69.313	122.1479
1000.000000	69.514	122.3010
1015.000000	69.767	122.7946
1030.000000	70.011	123.4895
1044.000000	70.225	124.1598
1060.000000	70.462	124.7664
1075.000000	70.676	125.1499
1090.000000	70.887	125.4441
1106.000000	71.125	125.6995
1120.000000	71.347	125.9495
1138.000000	71.635	126.3971
1150.000000	71.822	126.7188
1172.000000	72.180	127.1725
1180.000000	72.316	127.2769
1206.000000	72.763	127.4572
1220.000000	73.005	127.4417
1241.000000	73.390	127.2965
1250.000000	73.569	127.2290
1265.000000	73.882	127.1472
1280.000000	74.202	127.0721
1315.000000	74.909	126.7290
1320.000000	75.002	126.6812
1340.000000	75.354	126.5607
1360.000000	75.672	126.4479
1380.000000	75.959	126.1757
1400.000000	76.227	125.7512
1430.000000	76.645	125.0002
1450.000000	76.950	124.4308
1475.000000	77.344	123.5315
1500.000000	77.734	122.4170
1525.000000	78.119	121.1609
1550.000000	78.480	119.8650
1575.000000	78.801	118.5172
1600.000000	79.093	117.0557
1625.000000	79.363	115.4746
1650.000000	79.600	113.8096
1675.000000	79.797	112.1885
1700.000000	79.959	110.7428
1725.000000	80.098	109.4873
1750.000000	80.221	108.3623
1775.000000	80.326	107.3398
1800.000000	80.418	106.4607
1825.000000	80.506	105.7468
1850.000000	80.597	105.2106
1875.000000	80.690	104.8337
1900.000000	80.781	104.5571
1925.000000	80.869	104.3091
1950.000000	80.953	104.0198
1975.000000	81.034	103.6619
2000.000000	81.119	103.2588
2030.000000	81.237	102.7290
2060.000000	81.361	102.1177
2090.000000	81.464	101.3976
2120.000000	81.545	100.6057
2140.000000	81.596	100.0868
2180.000000	81.691	99.1866
2200.000000	81.733	98.7922
2240.000000	81.812	98.0214
2270.000000	81.863	97.4800
2300.000000	81.890	96.9714
2330.000000	81.889	96.4502
2360.000000	81.874	95.8842
2400.000000	81.854	95.1660
2430.000000	81.837	94.7958
2470.000000	81.802	94.5605
2500.000000	81.760	94.4867
2540.000000	81.686	94.4918
2580.000000	81.608	94.6895
2620.000000	81.545	95.0951
2650.000000	81.505	95.4685
2690.000000	81.448	95.8901
2720.000000	81.397	96.0686
2760.000000	81.324	96.1597
2800.000000	81.255	96.2292
2850.000000	81.177	96.5076
2900.000000	81.097	97.0874
2950.000000	81.014	97.8098
3000.000000	80.933	98.5406
3040.000000	80.870	99.1472
3070.000000	80.823	99.6024
3110.000000	80.756	100.1698
3150.000000	80.672	100.6763
3200.000000	80.542	101.2291
3250.000000	80.396	101.7693
3300.000000	80.249	102.5016
3350.000000	80.106	103.6556
3400.000000	79.972	105.3013
3450.000000	79.836	107.2686
3500.000000	79.688	109.3232
3550.000000	79.532	111.3361
3600.000000	79.382	113.3069
3650.000000	79.249	115.3197
3700.000000	79.134	117.4219
3750.000000	79.040	119.5236
3820.000000	78.939	122.2277
3870.000000	78.885	123.9365
3950.000000	78.827	126.4725
4000.000000	78.799	128.0552
4060.000000	78.754	129.9299
4120.000000	78.692	131.6659
4180.000000	78.611	133.1598
4250.000000	78.473	134.5375
4310.000000	78.322	135.4263
4370.000000	78.155	136.1013
4440.000000	77.957	136.7119
4500.000000	77.779	137.2275
4550.000000	77.626	137.7893
4620.000000	77.404	138.9099
4680.000000	77.196	140.1775
4750.000000	76.929	142.0245
4820.000000	76.646	144.4381
4870.000000	76.458	146.6124
4940.000000	76.277	150.0874
5000.000000	76.219	152.9077
5080.000000	76.175	155.6985
5150.000000	76.056	157.5172
5220.000000	75.844	159.4418
5300.000000	75.525	162.1270
5380.000000	75.178	165.2057
5450.000000	74.877	167.9856
5520.000000	74.581	170.6815
5600.000000	74.247	173.6930
5700.000000	73.837	177.6055
5800.000000	73.444	-178.2048
5900.000000	73.079	-173.8251
6000.000000	72.753	-169.2494
6080.000000	72.518	-165.2285
6150.000000	72.332	-161.3328
6220.000000	72.165	-157.1816
6300.000000	72.001	-152.3826
6400.000000	71.829	-146.6578
6500.000000	71.685	-141.3595
6600.000000	71.565	-136.3298
6700.000000	71.471	-131.4753
6800.000000	71.426	-127.0605
6900.000000	71.437	-123.4481
7000.000000	71.485	-120.6604
7100.000000	71.545	-118.5170
7200.000000	71.597	-116.7042
7300.000000	71.662	-114.5981
7400.000000	71.809	-111.7804
7500.000000	72.107	-108.5825
7620.000000	72.675	-105.3511
7750.000000	73.417	-103.8718
7880.000000	74.090	-105.0952
8000.000000	74.522	-108.3507
8120.000000	74.699	-112.9663
8250.000000	74.572	-118.7030
8380.000000	74.116	-124.6168
8500.000000	73.426	-129.8066
8620.000000	72.526	-134.2778
8750.000000	71.389	-137.9285
8850.000000	70.436	-139.7621
9000.000000	68.942	-140.9103
9120.000000	67.742	-140.6095
9250.000000	66.480	-139.4579
9380.000000	65.287	-138.0359
9500.000000	64.254	-136.8130
9620.000000	63.293	-135.4857
9750.000000	62.329	-133.4094
9880.000000	61.435	-130.3147
10000.000000	60.679	-126.4647
10150.000000	59.848	-120.5326
10300.000000	59.161	-114.0507
10440.000000	58.617	-107.9578
10600.000000	58.076	-100.7383
10750.000000	57.656	-93.4313
10900.000000	57.338	-86.1349
11060.000000	57.140	-79.3889
11200.000000	57.078	-74.6025
11380.000000	57.087	-69.3635
11500.000000	57.129	-65.9431
11720.000000	57.337	-59.0931
11800.000000	57.449	-56.6118
12060.000000	57.844	-49.8892
12200.000000	58.056	-47.3741
12410.000000	58.365	-45.3060
12500.000000	58.484	-45.0011
12650.000000	58.642	-45.0632
12800.000000	58.743	-45.6514
13150.000000	58.681	-48.8005
13200.000000	58.623	-49.5496
13400.000000	58.245	-55.0283
13600.000000	57.674	-70.8176
13800.000000	57.046	-111.2516
14000.000000	56.503	172.7449
14300.000000	55.963	41.6687
14500.000000	55.754	-15.4619
14750.000000	55.588	-74.6981
15000.000000	55.552	-164.1509
15250.000000	55.757	89.8025
15500.000000	56.130	16.0079
15750.000000	56.631	-35.9108
16000.000000	57.161	-121.9866
16250.000000	57.404	45.8737
16500.000000	57.102	59.4756
16750.000000	56.242	-118.8792
17000.000000	55.038	14.5465
17250.000000	53.812	-49.4246
17500.000000	52.874	98.8716
17750.000000	52.438	9.6729
18000.000000	52.508	-161.1992
18250.000000	52.914	174.8242
18500.000000	53.493	98.4570
18750.000000	54.127	-105.4023
19000.000000	54.706	58.3125
19250.000000	55.137	95.2578
19500.000000	55.376	-84.9688
19750.000000	55.411	-6.4141
