* Measurement data measured by REW V5.31.3
* Source: Microphone (4- USB Audio Device), MICROPHONE (Master Volume), R, volume: 0.250
* Format: 256k Log Swept Sine, 1 sweep at -12.0 dBFS with no timing reference
* Dated: 24-Aug-2024 15:09:46
* REW Settings:
*  C-weighting compensation: Off
*  Target level: 75.0 dB
* Note: 
* Measurement: Ultrasonic 336X L
* Smoothing: 1/12 octave
* Frequency Step: 1/48 octave
* Start Frequency: 20.300 Hz
*
* Freq(Hz)	SPL(dB)	Phase(degrees)
20.299999	76.357	62.2342
20.600000	76.368	61.7737
20.900000	76.390	61.1146
21.200001	76.423	60.3135
21.400000	76.452	59.7294
21.799999	76.521	58.5360
22.000000	76.561	57.9710
22.400000	76.648	56.9895
22.700001	76.717	56.4135
23.000000	76.787	55.9648
23.299999	76.853	55.6075
23.600000	76.909	55.2969
24.000000	76.963	54.8893
24.299999	76.987	54.5596
24.700001	77.002	54.0764
25.000000	77.008	53.6862
25.400000	77.020	53.1428
25.799999	77.046	52.5894
26.200001	77.087	52.0464
26.500000	77.123	51.6599
26.900000	77.170	51.1881
27.200001	77.201	50.8712
27.600000	77.232	50.4902
28.000000	77.252	50.1337
28.500000	77.266	49.6794
29.000000	77.278	49.1919
29.500000	77.294	48.6947
30.000000	77.321	48.2405
30.400000	77.350	47.9312
30.700001	77.377	47.7275
31.100000	77.415	47.4720
31.500000	77.454	47.2048
32.000000	77.498	46.8213
32.500000	77.532	46.3943
33.000000	77.557	45.9816
33.500000	77.581	45.6418
34.000000	77.608	45.3886
34.500000	77.639	45.1877
35.000000	77.669	44.9900
35.500000	77.693	44.7671
36.000000	77.710	44.5219
36.500000	77.722	44.2752
37.000000	77.737	44.0463
37.500000	77.756	43.8394
38.200001	77.789	43.5648
38.700001	77.814	43.3581
39.500000	77.846	42.9930
40.000000	77.861	42.7551
40.599998	77.875	42.4901
41.200001	77.886	42.2767
41.799999	77.898	42.1174
42.500000	77.921	41.9509
43.099998	77.948	41.7790
43.700001	77.978	41.5768
44.400002	78.011	41.3411
45.000000	78.033	41.1700
45.500000	78.046	41.0549
46.200001	78.055	40.9200
46.799999	78.059	40.8052
47.500000	78.062	40.6635
48.200001	78.068	40.5426
48.700001	78.077	40.4798
49.400002	78.095	40.3960
50.000000	78.109	40.2886
50.799999	78.117	40.0868
51.500000	78.113	39.9071
52.200001	78.106	39.7713
53.000000	78.101	39.6760
53.799999	78.103	39.6111
54.500000	78.109	39.5486
55.200001	78.117	39.4767
56.000000	78.124	39.4022
57.000000	78.129	39.3374
58.000000	78.131	39.2791
59.000000	78.137	39.1890
60.000000	78.148	39.0707
60.799999	78.151	38.9843
61.500000	78.146	38.9211
62.200001	78.136	38.8592
63.000000	78.122	38.7792
64.000000	78.111	38.6661
65.000000	78.106	38.5555
66.000000	78.102	38.4559
67.000000	78.098	38.3645
68.000000	78.099	38.2811
69.000000	78.104	38.1976
70.000000	78.104	38.1117
71.000000	78.096	38.0304
72.000000	78.082	37.9589
73.000000	78.066	37.8972
74.000000	78.051	37.8308
75.000000	78.040	37.7565
76.199997	78.031	37.6835
77.500000	78.018	37.6364
78.800003	77.992	37.6236
80.000000	77.958	37.6353
81.199997	77.921	37.6339
82.500000	77.892	37.5992
83.800003	77.878	37.5702
85.000000	77.866	37.5871
86.199997	77.849	37.6448
87.500000	77.823	37.7188
88.500000	77.801	37.7745
90.000000	77.763	37.8588
91.199997	77.733	37.9040
92.500000	77.703	37.9366
93.800003	77.676	37.9843
95.000000	77.653	38.0555
96.199997	77.629	38.1649
97.500000	77.600	38.3199
98.800003	77.568	38.4727
100.000000	77.534	38.5890
101.500000	77.485	38.7282
103.000000	77.434	38.8950
104.400002	77.388	39.0893
106.000000	77.339	39.3445
107.500000	77.294	39.5544
109.000000	77.248	39.7001
110.599998	77.197	39.8208
112.000000	77.150	39.9503
113.800003	77.091	40.1877
115.000000	77.053	40.3694
117.199997	76.987	40.6557
118.000000	76.963	40.7378
120.599998	76.886	41.0094
122.000000	76.841	41.2066
124.099998	76.769	41.5922
125.000000	76.737	41.7825
126.500000	76.684	42.1041
128.000000	76.633	42.4067
131.500000	76.529	43.1424
132.000000	76.514	43.2611
134.000000	76.448	43.7533
136.000000	76.382	44.2469
138.000000	76.324	44.7324
140.000000	76.272	45.2070
143.000000	76.199	45.9257
145.000000	76.147	46.4384
147.500000	76.071	47.0830
150.000000	75.988	47.7193
152.500000	75.907	48.3906
155.000000	75.834	49.1180
157.500000	75.762	49.9196
160.000000	75.691	50.7733
162.500000	75.625	51.6072
165.000000	75.562	52.4180
167.500000	75.497	53.2611
170.000000	75.429	54.1404
172.500000	75.354	55.0217
175.000000	75.274	55.8759
177.500000	75.198	56.7136
180.000000	75.129	57.5723
182.500000	75.059	58.4597
185.000000	74.985	59.3587
187.500000	74.905	60.2676
190.000000	74.820	61.2118
192.500000	74.739	62.2053
195.000000	74.666	63.2526
197.500000	74.604	64.3514
200.000000	74.553	65.4745
203.000000	74.504	66.7880
206.000000	74.456	68.0154
209.000000	74.404	69.1786
212.000000	74.346	70.3276
214.000000	74.304	71.1101
218.000000	74.219	72.7844
220.000000	74.181	73.6902
224.000000	74.123	75.6055
227.000000	74.098	77.0553
230.000000	74.088	78.4576
233.000000	74.085	79.7983
236.000000	74.077	81.0733
240.000000	74.051	82.6787
243.000000	74.023	83.8453
247.000000	73.976	85.3691
250.000000	73.941	86.4861
254.000000	73.894	87.9777
258.000000	73.846	89.5167
262.000000	73.794	91.1057
265.000000	73.752	92.3316
269.000000	73.693	93.9693
272.000000	73.652	95.1799
276.000000	73.603	96.7789
280.000000	73.559	98.3626
285.000000	73.505	100.3170
290.000000	73.449	102.2867
295.000000	73.390	104.2587
300.000000	73.327	106.1902
304.000000	73.275	107.7079
307.000000	73.236	108.8456
311.000000	73.184	110.3844
315.000000	73.137	111.9608
320.000000	73.086	113.9592
325.000000	73.037	115.9175
330.000000	72.979	117.8129
335.000000	72.913	119.6813
340.000000	72.846	121.5533
345.000000	72.782	123.4265
350.000000	72.719	125.2982
355.000000	72.653	127.2014
360.000000	72.587	129.1234
365.000000	72.523	131.0196
370.000000	72.461	132.8656
375.000000	72.402	134.6817
382.000000	72.319	137.2238
387.000000	72.260	139.0348
395.000000	72.167	141.8970
400.000000	72.111	143.6899
406.000000	72.049	145.8544
412.000000	71.995	147.9950
418.000000	71.951	150.0857
425.000000	71.903	152.4806
431.000000	71.858	154.5244
437.000000	71.808	156.5725
444.000000	71.749	158.9539
450.000000	71.698	161.0064
455.000000	71.654	162.7356
462.000000	71.589	165.1863
468.000000	71.538	167.3078
475.000000	71.486	169.7872
482.000000	71.439	172.2375
487.000000	71.404	173.9657
494.000000	71.352	176.3783
500.000000	71.309	178.4553
508.000000	71.257	-178.7685
515.000000	71.216	-176.3522
522.000000	71.174	-173.9676
530.000000	71.123	-171.3095
538.000000	71.071	-168.7295
545.000000	71.023	-166.5089
552.000000	70.971	-164.2832
560.000000	70.906	-161.7266
570.000000	70.820	-158.5519
580.000000	70.731	-155.3930
590.000000	70.639	-152.2333
600.000000	70.545	-149.1010
608.000000	70.472	-146.6056
615.000000	70.409	-144.4203
622.000000	70.345	-142.2231
630.000000	70.270	-139.6699
640.000000	70.181	-136.3850
650.000000	70.106	-133.0453
660.000000	70.038	-129.6650
670.000000	69.972	-126.2314
680.000000	69.909	-122.8008
690.000000	69.844	-119.4562
700.000000	69.770	-116.2246
710.000000	69.688	-113.0677
720.000000	69.606	-109.9665
730.000000	69.528	-106.9037
740.000000	69.456	-103.8413
750.000000	69.388	-100.7654
762.000000	69.309	-97.0527
775.000000	69.223	-93.0061
788.000000	69.135	-88.9521
800.000000	69.054	-85.2531
812.000000	68.975	-81.5938
825.000000	68.904	-77.6453
838.000000	68.844	-73.7024
850.000000	68.790	-70.0862
862.000000	68.733	-66.4769
875.000000	68.671	-62.5346
885.000000	68.629	-59.4639
900.000000	68.574	-54.8016
912.000000	68.535	-51.0117
925.000000	68.495	-46.8430
938.000000	68.466	-42.6664
950.000000	68.452	-38.8334
962.000000	68.447	-35.0058
975.000000	68.444	-30.8577
988.000000	68.445	-26.7513
1000.000000	68.451	-23.0280
1015.000000	68.471	-18.4751
1030.000000	68.497	-14.0254
1044.000000	68.525	-9.9403
1060.000000	68.562	-5.3118
1075.000000	68.602	-0.9711
1090.000000	68.645	3.3948
1106.000000	68.691	8.0739
1120.000000	68.733	12.1562
1138.000000	68.798	17.3491
1150.000000	68.847	20.7673
1172.000000	68.944	26.9144
1180.000000	68.979	29.1031
1206.000000	69.100	36.0594
1220.000000	69.166	39.7041
1241.000000	69.261	45.0093
1250.000000	69.300	47.2339
1265.000000	69.363	50.9092
1280.000000	69.426	54.5732
1315.000000	69.599	63.1803
1320.000000	69.626	64.4136
1340.000000	69.735	69.3228
1360.000000	69.844	74.1524
1380.000000	69.951	78.8754
1400.000000	70.056	83.4552
1430.000000	70.216	90.0388
1450.000000	70.325	94.2554
1475.000000	70.459	99.4924
1500.000000	70.600	104.9325
1525.000000	70.760	110.7256
1550.000000	70.934	116.8156
1575.000000	71.104	123.1514
1600.000000	71.274	129.7267
1625.000000	71.458	136.5203
1650.000000	71.660	143.4752
1675.000000	71.875	150.4879
1700.000000	72.098	157.4454
1725.000000	72.332	164.2535
1750.000000	72.581	170.8558
1775.000000	72.839	177.2213
1800.000000	73.101	-176.5991
1825.000000	73.371	-170.4888
1850.000000	73.650	-164.4028
1875.000000	73.934	-158.3817
1900.000000	74.217	-152.4478
1925.000000	74.501	-146.6243
1950.000000	74.786	-141.0026
1975.000000	75.066	-135.6767
2000.000000	75.339	-130.6485
2030.000000	75.668	-124.8914
2060.000000	76.004	-119.3224
2090.000000	76.334	-113.9319
2120.000000	76.650	-108.7241
2140.000000	76.855	-105.3508
2180.000000	77.250	-98.8049
2200.000000	77.439	-95.5994
2240.000000	77.789	-89.2625
2270.000000	78.028	-84.5602
2300.000000	78.248	-79.9178
2330.000000	78.446	-75.3294
2360.000000	78.621	-70.7893
2400.000000	78.818	-64.7832
2430.000000	78.940	-60.2954
2470.000000	79.077	-54.2795
2500.000000	79.165	-49.7239
2540.000000	79.263	-43.5868
2580.000000	79.340	-37.2858
2620.000000	79.402	-30.6671
2650.000000	79.442	-25.4767
2690.000000	79.486	-18.3740
2720.000000	79.512	-12.9904
2760.000000	79.543	-5.8490
2800.000000	79.566	1.0733
2850.000000	79.572	9.2736
2900.000000	79.554	17.3182
2950.000000	79.541	25.6893
3000.000000	79.534	34.4286
3040.000000	79.521	41.5753
3070.000000	79.505	46.9949
3110.000000	79.482	54.3058
3150.000000	79.458	61.7507
3200.000000	79.437	71.2919
3250.000000	79.428	81.0018
3300.000000	79.427	90.6448
3350.000000	79.432	100.0694
3400.000000	79.446	109.2822
3450.000000	79.478	118.3806
3500.000000	79.533	127.5376
3550.000000	79.621	136.9977
3600.000000	79.745	146.8788
3650.000000	79.901	157.0059
3700.000000	80.088	166.9570
3750.000000	80.298	176.2466
3820.000000	80.620	-172.2574
3870.000000	80.870	-164.9244
3950.000000	81.292	-153.9681
4000.000000	81.549	-147.3394
4060.000000	81.827	-139.6190
4120.000000	82.047	-132.2708
4180.000000	82.196	-125.2783
4250.000000	82.274	-117.5227
4310.000000	82.253	-111.3535
4370.000000	82.148	-105.7605
4440.000000	81.936	-99.7405
4500.000000	81.696	-94.6548
4550.000000	81.461	-90.3774
4620.000000	81.066	-84.5171
4680.000000	80.657	-79.7633
4750.000000	80.092	-74.4465
4820.000000	79.427	-69.1409
4870.000000	78.885	-65.2617
4940.000000	78.030	-59.6162
5000.000000	77.202	-54.4330
5080.000000	75.976	-46.5579
5150.000000	74.809	-38.3956
5220.000000	73.571	-28.8589
5300.000000	72.112	-15.8066
5380.000000	70.698	0.3275
5450.000000	69.619	17.4766
5520.000000	68.842	37.2954
5600.000000	68.498	61.5891
5700.000000	68.924	89.7679
5800.000000	69.935	111.9866
5900.000000	71.075	128.6212
6000.000000	72.116	141.4702
6080.000000	72.855	149.9910
6150.000000	73.448	156.5579
6220.000000	74.007	162.5673
6300.000000	74.625	169.0715
6400.000000	75.381	177.0548
6500.000000	76.141	-174.7432
6600.000000	76.927	-166.1740
6700.000000	77.756	-157.4619
6800.000000	78.642	-148.9944
6900.000000	79.593	-141.2573
7000.000000	80.607	-134.8660
7100.000000	81.665	-130.3445
7200.000000	82.741	-127.7864
7300.000000	83.806	-126.9955
7400.000000	84.812	-127.8685
7500.000000	85.708	-130.4867
7620.000000	86.569	-135.9265
7750.000000	87.153	-144.3954
7880.000000	87.286	-154.9257
8000.000000	86.950	-165.4333
8120.000000	86.158	-175.4492
8250.000000	84.839	175.7327
8380.000000	83.160	170.1134
8500.000000	81.404	167.7672
8620.000000	79.540	167.8345
8750.000000	77.478	170.8234
8850.000000	75.900	175.4851
9000.000000	73.569	-173.6184
9120.000000	71.736	-161.8528
9250.000000	69.784	-146.2085
9380.000000	67.897	-127.3413
9500.000000	66.277	-106.6265
9620.000000	64.900	-82.4049
9750.000000	63.863	-53.3995
9880.000000	63.417	-24.8718
10000.000000	63.482	-1.5605
10150.000000	63.963	22.8182
10300.000000	64.628	42.7640
10440.000000	65.270	58.1592
10600.000000	65.971	72.9644
10750.000000	66.597	85.2228
10900.000000	67.215	96.7432
11060.000000	67.893	108.5964
11200.000000	68.527	118.7167
11380.000000	69.427	131.3372
11500.000000	70.094	139.2198
11720.000000	71.474	151.4563
11800.000000	72.028	154.9044
12060.000000	73.971	161.9700
12200.000000	75.035	163.2616
12410.000000	76.449	161.9287
12500.000000	76.919	160.2235
12650.000000	77.434	156.0953
12800.000000	77.547	150.7629
13150.000000	76.269	138.7502
13200.000000	75.952	137.6116
13400.000000	74.496	135.0947
13600.000000	72.907	135.6200
13800.000000	71.360	138.9408
14000.000000	69.995	144.4828
14300.000000	68.473	153.4775
14500.000000	67.885	159.1619
14750.000000	67.682	168.4734
15000.000000	68.059	-177.5002
15250.000000	68.940	-161.0780
15500.000000	70.151	-145.9934
15750.000000	71.414	-133.2972
16000.000000	72.406	-122.8673
16250.000000	72.876	-113.9368
16500.000000	72.770	-103.9623
16750.000000	72.245	-90.2733
17000.000000	71.560	-72.1171
17250.000000	70.973	-50.0659
17500.000000	70.675	-24.6232
17750.000000	70.741	3.1223
18000.000000	71.141	30.6256
18250.000000	71.789	55.5148
18500.000000	72.579	76.9604
18750.000000	73.395	94.7070
19000.000000	74.117	108.4226
19250.000000	74.649	118.3704
19500.000000	74.967	125.6558
19750.000000	75.117	131.1667
20000.000000	75.167	134.4082
