* Measurement data measured by REW V5.31.3
* Source: Microphone (4- USB Audio Device), MICROPHONE (Master Volume), R, volume: 0.250
* Format: 256k Log Swept Sine, 1 sweep at -12.0 dBFS with no timing reference
* Dated: 18-Sep-2024 18:18:23
* REW Settings:
*  C-weighting compensation: Off
*  Target level: 75.0 dB
* Note: 
* Measurement: Ultrasonic Ref L
* Smoothing: 1/12 octave
* Frequency Step: 1/48 octave
* Start Frequency: 20.300 Hz
*
* Freq(Hz)	SPL(dB)	Phase(degrees)
20.299999	78.445	29.0366
20.600000	78.478	28.6340
20.900000	78.523	28.1989
21.200001	78.576	27.8246
21.400000	78.613	27.6207
21.799999	78.685	27.3055
22.000000	78.717	27.1788
22.400000	78.771	26.9455
22.700001	78.801	26.7581
23.000000	78.824	26.5387
23.299999	78.842	26.2751
23.600000	78.860	25.9623
24.000000	78.889	25.4726
24.299999	78.917	25.0619
24.700001	78.964	24.4829
25.000000	79.004	24.0458
25.400000	79.059	23.4880
25.799999	79.111	22.9789
26.200001	79.160	22.5204
26.500000	79.194	22.1980
26.900000	79.239	21.7709
27.200001	79.272	21.4355
27.600000	79.316	20.9538
28.000000	79.362	20.4342
28.500000	79.421	19.7578
29.000000	79.481	19.0854
29.500000	79.541	18.4323
30.000000	79.598	17.7922
30.400000	79.640	17.2814
30.700001	79.671	16.8952
31.100000	79.710	16.3704
31.500000	79.749	15.8272
32.000000	79.797	15.1153
32.500000	79.841	14.3770
33.000000	79.881	13.6410
33.500000	79.918	12.9304
34.000000	79.956	12.2425
34.500000	79.997	11.5589
35.000000	80.036	10.8714
35.500000	80.072	10.1907
36.000000	80.103	9.5304
36.500000	80.132	8.8890
37.000000	80.159	8.2534
37.500000	80.185	7.6120
38.200001	80.220	6.7046
38.700001	80.244	6.0621
39.500000	80.280	5.0675
40.000000	80.301	4.4571
40.599998	80.325	3.7030
41.200001	80.343	2.9182
41.799999	80.355	2.1528
42.500000	80.377	1.3511
43.099998	80.409	0.7032
43.700001	80.444	0.0060
44.400002	80.469	-0.8939
45.000000	80.471	-1.6728
45.500000	80.468	-2.2836
46.200001	80.469	-3.0701
46.799999	80.476	-3.7016
47.500000	80.482	-4.4127
48.200001	80.476	-5.1103
48.700001	80.466	-5.6101
49.400002	80.451	-6.3324
50.000000	80.444	-6.9842
50.799999	80.440	-7.8709
51.500000	80.435	-8.6038
52.200001	80.428	-9.2719
53.000000	80.418	-10.0004
53.799999	80.407	-10.7420
54.500000	80.397	-11.4017
55.200001	80.386	-12.0540
56.000000	80.373	-12.7857
57.000000	80.354	-13.6949
58.000000	80.329	-14.6052
59.000000	80.305	-15.5140
60.000000	80.288	-16.4172
60.799999	80.277	-17.1186
61.500000	80.265	-17.7038
62.200001	80.249	-18.2605
63.000000	80.226	-18.8722
64.000000	80.197	-19.6221
65.000000	80.172	-20.3676
66.000000	80.151	-21.1147
67.000000	80.126	-21.8570
68.000000	80.100	-22.5695
69.000000	80.075	-23.2424
70.000000	80.050	-23.8901
71.000000	80.025	-24.5557
72.000000	79.997	-25.2712
73.000000	79.968	-26.0104
74.000000	79.941	-26.7233
75.000000	79.917	-27.3735
76.199997	79.890	-28.0821
77.500000	79.860	-28.8416
78.800003	79.832	-29.6192
80.000000	79.806	-30.3087
81.199997	79.779	-30.9737
82.500000	79.747	-31.7035
83.800003	79.711	-32.4515
85.000000	79.679	-33.1625
86.199997	79.651	-33.8976
87.500000	79.621	-34.6979
88.500000	79.597	-35.2999
90.000000	79.558	-36.1920
91.199997	79.524	-36.9050
92.500000	79.488	-37.6675
93.800003	79.451	-38.4038
95.000000	79.419	-39.0678
96.199997	79.388	-39.7388
97.500000	79.359	-40.4723
98.800003	79.331	-41.1945
100.000000	79.306	-41.8605
101.500000	79.270	-42.7182
103.000000	79.227	-43.5873
104.400002	79.185	-44.3960
106.000000	79.140	-45.3348
107.500000	79.104	-46.2314
109.000000	79.067	-47.1184
110.599998	79.023	-48.0276
112.000000	78.982	-48.7659
113.800003	78.929	-49.6014
115.000000	78.895	-50.1085
117.199997	78.842	-51.0247
118.000000	78.826	-51.3623
120.599998	78.774	-52.4617
122.000000	78.749	-53.0302
124.099998	78.715	-53.8227
125.000000	78.702	-54.1507
126.500000	78.676	-54.7047
128.000000	78.648	-55.2783
131.500000	78.570	-56.6563
132.000000	78.557	-56.8530
134.000000	78.502	-57.6349
136.000000	78.448	-58.3799
138.000000	78.401	-59.0773
140.000000	78.360	-59.7585
143.000000	78.304	-60.7930
145.000000	78.267	-61.4904
147.500000	78.221	-62.3372
150.000000	78.167	-63.1714
152.500000	78.108	-64.0448
155.000000	78.056	-64.9456
157.500000	78.011	-65.8170
160.000000	77.969	-66.6239
162.500000	77.929	-67.3780
165.000000	77.889	-68.0965
167.500000	77.844	-68.8153
170.000000	77.794	-69.5644
172.500000	77.737	-70.3625
175.000000	77.678	-71.1625
177.500000	77.621	-71.9277
180.000000	77.566	-72.6871
182.500000	77.516	-73.4388
185.000000	77.473	-74.1527
187.500000	77.433	-74.8484
190.000000	77.396	-75.5411
192.500000	77.365	-76.2311
195.000000	77.337	-76.9207
197.500000	77.311	-77.5956
200.000000	77.283	-78.2484
203.000000	77.245	-79.0268
206.000000	77.211	-79.8187
209.000000	77.184	-80.6144
212.000000	77.163	-81.4235
214.000000	77.150	-81.9768
218.000000	77.116	-83.1174
220.000000	77.093	-83.7054
224.000000	77.038	-84.9050
227.000000	76.998	-85.7861
230.000000	76.960	-86.6068
233.000000	76.921	-87.3316
236.000000	76.887	-87.9443
240.000000	76.855	-88.6329
243.000000	76.846	-89.1249
247.000000	76.862	-89.8491
250.000000	76.890	-90.4819
254.000000	76.932	-91.4790
258.000000	76.970	-92.6444
262.000000	77.001	-93.9262
265.000000	77.016	-94.9236
269.000000	77.026	-96.2442
272.000000	77.026	-97.2105
276.000000	77.022	-98.4679
280.000000	77.018	-99.6914
285.000000	77.015	-101.1868
290.000000	77.010	-102.6858
295.000000	77.002	-104.1441
300.000000	76.998	-105.5403
304.000000	76.995	-106.6368
307.000000	76.992	-107.4574
311.000000	76.988	-108.5583
315.000000	76.983	-109.6684
320.000000	76.978	-111.0734
325.000000	76.968	-112.4940
330.000000	76.951	-113.8993
335.000000	76.932	-115.2521
340.000000	76.912	-116.5430
345.000000	76.895	-117.7677
350.000000	76.885	-118.8972
355.000000	76.879	-119.9153
360.000000	76.871	-120.8387
365.000000	76.858	-121.6850
370.000000	76.842	-122.4879
375.000000	76.828	-123.2872
382.000000	76.821	-124.3881
387.000000	76.825	-125.1071
395.000000	76.836	-126.1538
400.000000	76.841	-126.7812
406.000000	76.849	-127.5524
412.000000	76.865	-128.3907
418.000000	76.883	-129.2878
425.000000	76.901	-130.3953
431.000000	76.919	-131.3915
437.000000	76.946	-132.4002
444.000000	76.988	-133.5434
450.000000	77.025	-134.4917
455.000000	77.053	-135.2812
462.000000	77.093	-136.3861
468.000000	77.130	-137.2911
475.000000	77.175	-138.2550
482.000000	77.216	-139.1381
487.000000	77.243	-139.7462
494.000000	77.283	-140.5935
500.000000	77.322	-141.3465
508.000000	77.376	-142.4364
515.000000	77.426	-143.4491
522.000000	77.475	-144.4826
530.000000	77.533	-145.6870
538.000000	77.591	-146.9507
545.000000	77.644	-148.1010
552.000000	77.698	-149.2499
560.000000	77.760	-150.5161
570.000000	77.836	-152.0388
580.000000	77.912	-153.5832
590.000000	77.995	-155.1818
600.000000	78.083	-156.8489
608.000000	78.150	-158.2550
615.000000	78.206	-159.5327
622.000000	78.258	-160.8426
630.000000	78.317	-162.3660
640.000000	78.391	-164.2716
650.000000	78.466	-166.1612
660.000000	78.542	-168.0821
670.000000	78.614	-170.0752
680.000000	78.684	-172.1496
690.000000	78.754	-174.2776
700.000000	78.826	-176.4239
710.000000	78.895	-178.5645
720.000000	78.962	179.3128
730.000000	79.021	177.2004
740.000000	79.069	175.1191
750.000000	79.104	173.0910
762.000000	79.139	170.6861
775.000000	79.168	168.0777
788.000000	79.184	165.4964
800.000000	79.187	163.1759
812.000000	79.194	160.9223
825.000000	79.208	158.4985
838.000000	79.219	156.0233
850.000000	79.220	153.6812
862.000000	79.212	151.2921
875.000000	79.200	148.6738
885.000000	79.190	146.6589
900.000000	79.169	143.6926
912.000000	79.153	141.3676
925.000000	79.137	138.8656
938.000000	79.125	136.3939
950.000000	79.117	134.1789
962.000000	79.114	132.0347
975.000000	79.111	129.7616
988.000000	79.105	127.5192
1000.000000	79.097	125.4610
1015.000000	79.093	122.9020
1030.000000	79.102	120.3559
1044.000000	79.118	117.9535
1060.000000	79.134	115.1536
1075.000000	79.147	112.4829
1090.000000	79.159	109.7760
1106.000000	79.175	106.8676
1120.000000	79.193	104.3187
1138.000000	79.220	101.0594
1150.000000	79.241	98.9383
1172.000000	79.283	95.1747
1180.000000	79.299	93.8294
1206.000000	79.356	89.5100
1220.000000	79.388	87.2083
1241.000000	79.431	83.8158
1250.000000	79.448	82.4021
1265.000000	79.478	80.1067
1280.000000	79.514	77.8727
1315.000000	79.606	72.6330
1320.000000	79.619	71.8486
1340.000000	79.665	68.6019
1360.000000	79.705	65.2690
1380.000000	79.745	62.0269
1400.000000	79.797	59.0114
1430.000000	79.897	54.8310
1450.000000	79.973	52.0333
1475.000000	80.073	48.1876
1500.000000	80.166	43.9005
1525.000000	80.260	39.3632
1550.000000	80.378	34.7814
1575.000000	80.514	30.1912
1600.000000	80.651	25.4650
1625.000000	80.792	20.5809
1650.000000	80.942	15.5996
1675.000000	81.091	10.5501
1700.000000	81.229	5.4407
1725.000000	81.358	0.3631
1750.000000	81.485	-4.5385
1775.000000	81.608	-9.2603
1800.000000	81.722	-13.8627
1825.000000	81.825	-18.3645
1850.000000	81.918	-22.7587
1875.000000	82.001	-27.0642
1900.000000	82.073	-31.3163
1925.000000	82.135	-35.5387
1950.000000	82.192	-39.7841
1975.000000	82.245	-44.0810
2000.000000	82.295	-48.4080
2030.000000	82.354	-53.5824
2060.000000	82.413	-58.6782
2090.000000	82.481	-63.6443
2120.000000	82.560	-68.4182
2140.000000	82.620	-71.4808
2180.000000	82.752	-77.3370
2200.000000	82.823	-80.1602
2240.000000	82.982	-85.6597
2270.000000	83.118	-89.7567
2300.000000	83.265	-93.9250
2330.000000	83.419	-98.1837
2360.000000	83.578	-102.5211
2400.000000	83.796	-108.4503
2430.000000	83.961	-113.0250
2470.000000	84.191	-119.2037
2500.000000	84.371	-123.8805
2540.000000	84.613	-130.3013
2580.000000	84.854	-137.0369
2620.000000	85.096	-144.0310
2650.000000	85.275	-149.3785
2690.000000	85.505	-156.5654
2720.000000	85.671	-161.9695
2760.000000	85.880	-169.2276
2800.000000	86.063	-176.6509
2850.000000	86.256	173.8056
2900.000000	86.418	164.1597
2950.000000	86.546	154.4600
3000.000000	86.638	144.7124
3040.000000	86.694	137.0370
3070.000000	86.729	131.4045
3110.000000	86.761	124.0046
3150.000000	86.769	116.6256
3200.000000	86.744	107.4326
3250.000000	86.695	98.5723
3300.000000	86.634	90.5065
3350.000000	86.569	83.5770
3400.000000	86.510	77.8267
3450.000000	86.450	72.9657
3500.000000	86.385	68.6520
3550.000000	86.324	64.6981
3600.000000	86.270	60.9325
3650.000000	86.219	57.2151
3700.000000	86.169	53.5681
3750.000000	86.124	50.0839
3820.000000	86.065	45.4271
3870.000000	86.022	42.1051
3950.000000	85.949	36.6893
4000.000000	85.908	33.2656
4060.000000	85.864	29.0743
4120.000000	85.823	24.8466
4180.000000	85.785	20.8168
4250.000000	85.751	16.5560
4310.000000	85.721	13.1205
4370.000000	85.680	9.7058
4440.000000	85.617	5.7047
4500.000000	85.540	2.1608
4550.000000	85.453	-0.9065
4620.000000	85.293	-5.1984
4680.000000	85.110	-8.6624
4750.000000	84.837	-12.2297
4820.000000	84.503	-15.1631
4870.000000	84.229	-16.8652
4940.000000	83.809	-18.6109
5000.000000	83.432	-19.3354
5080.000000	82.941	-19.0211
5150.000000	82.550	-17.7196
5220.000000	82.233	-15.8491
5300.000000	81.993	-13.6725
5380.000000	81.892	-11.9811
5450.000000	81.926	-10.9501
5520.000000	82.069	-10.2771
5600.000000	82.334	-10.0161
5700.000000	82.737	-10.6121
5800.000000	83.120	-11.9391
5900.000000	83.383	-13.5417
6000.000000	83.493	-14.9980
6080.000000	83.496	-15.8915
6150.000000	83.460	-16.5598
6220.000000	83.405	-17.1613
6300.000000	83.338	-17.6942
6400.000000	83.267	-17.9986
6500.000000	83.222	-17.7134
6600.000000	83.215	-16.6281
6700.000000	83.253	-14.6917
6800.000000	83.342	-12.1954
6900.000000	83.482	-9.7355
7000.000000	83.675	-7.6795
7100.000000	83.925	-5.9104
7200.000000	84.235	-4.1906
7300.000000	84.604	-2.6132
7400.000000	85.015	-1.7097
7500.000000	85.442	-2.0147
7620.000000	85.920	-4.1502
7750.000000	86.308	-8.3285
7880.000000	86.429	-14.2584
8000.000000	86.191	-21.1078
8120.000000	85.558	-28.6417
8250.000000	84.442	-36.6262
8380.000000	83.000	-43.4908
8500.000000	81.576	-48.1789
8620.000000	80.266	-51.1464
8750.000000	79.109	-53.1247
8850.000000	78.399	-54.3876
9000.000000	77.527	-56.1031
9120.000000	76.914	-57.1075
9250.000000	76.271	-57.7725
9380.000000	75.629	-58.1133
9500.000000	75.043	-58.1016
9620.000000	74.478	-57.6243
9750.000000	73.906	-56.3793
9880.000000	73.393	-54.1178
10000.000000	72.978	-51.0731
10150.000000	72.532	-46.3500
10300.000000	72.158	-41.1755
10440.000000	71.865	-36.5199
10600.000000	71.595	-31.5787
10750.000000	71.410	-26.9478
10900.000000	71.299	-22.0759
11060.000000	71.266	-16.7238
11200.000000	71.313	-11.9973
11380.000000	71.479	-5.8839
11500.000000	71.656	-1.9373
11720.000000	72.114	4.8243
11800.000000	72.329	7.2519
12060.000000	73.238	15.7580
12200.000000	73.882	20.7351
12410.000000	75.062	27.6698
12500.000000	75.634	29.9966
12650.000000	76.631	32.6174
12800.000000	77.609	33.4163
13150.000000	79.137	27.0105
13200.000000	79.204	25.2679
13400.000000	78.987	17.4933
13600.000000	78.018	10.7029
13800.000000	76.459	6.9587
14000.000000	74.565	6.8839
14300.000000	71.680	13.4722
14500.000000	70.068	22.1193
14750.000000	68.668	36.3098
15000.000000	68.062	51.3940
15250.000000	68.244	63.8617
15500.000000	69.087	71.6385
15750.000000	70.349	75.1893
16000.000000	71.744	75.4752
16250.000000	73.010	73.4440
16500.000000	73.928	70.7466
16750.000000	74.373	69.1335
17000.000000	74.377	70.0214
17250.000000	74.114	74.6007
17500.000000	73.808	83.5748
17750.000000	73.643	96.7012
18000.000000	73.712	112.1688
18250.000000	74.033	127.4888
18500.000000	74.591	141.7245
18750.000000	75.350	155.4756
19000.000000	76.239	169.4674
19250.000000	77.152	-176.3654
19500.000000	77.972	-163.2391
19750.000000	78.591	-153.0276
20000.000000	78.913	-147.5001
