* Measurement data measured by REW V5.31.1
* Source: Microphone (4- USB Audio Device), MICROPHONE (Master Volume), R, volume: 0.900
* Format: 256k Log Swept Sine, 1 sweep at -12.0 dBFS with no timing reference
* Dated: 12-Jun-2024 14:33:11
* REW Settings:
*  C-weighting compensation: Off
*  Target level: 75.0 dB
* Note: 
* Measurement: Vivo TWS4 MB
* Smoothing: 1/12 octave
* Frequency Step: 1/48 octave
* Start Frequency: 20.300 Hz
*
* Freq(Hz)	SPL(dB)	Phase(degrees)
20.299999	79.974	109.3194
20.600000	80.094	107.7130
20.900000	80.238	105.7142
21.200001	80.382	103.6001
21.400000	80.474	102.1858
21.799999	80.646	99.4087
22.000000	80.727	98.0594
22.400000	80.882	95.4538
22.700001	80.992	93.5815
23.000000	81.099	91.7739
23.299999	81.201	90.0223
23.600000	81.298	88.3174
24.000000	81.419	86.1022
24.299999	81.503	84.4759
24.700001	81.606	82.3466
25.000000	81.678	80.7771
25.400000	81.768	78.7230
25.799999	81.853	76.7203
26.200001	81.934	74.7797
26.500000	81.992	73.3713
26.900000	82.066	71.5609
27.200001	82.120	70.2525
27.600000	82.190	68.5639
28.000000	82.258	66.9196
28.500000	82.342	64.8929
29.000000	82.422	62.8773
29.500000	82.495	60.8875
30.000000	82.563	58.9610
30.400000	82.617	57.4811
30.700001	82.659	56.4041
31.100000	82.717	54.9979
31.500000	82.776	53.6088
32.000000	82.848	51.8817
32.500000	82.916	50.1696
33.000000	82.980	48.4832
33.500000	83.046	46.8188
34.000000	83.114	45.1606
34.500000	83.182	43.5004
35.000000	83.245	41.8459
35.500000	83.303	40.2104
36.000000	83.358	38.5978
36.500000	83.410	37.0010
37.000000	83.459	35.4114
37.500000	83.506	33.8265
38.200001	83.566	31.6224
38.700001	83.605	30.0632
39.500000	83.661	27.5918
40.000000	83.691	26.0543
40.599998	83.722	24.2106
41.200001	83.746	22.3726
41.799999	83.762	20.5540
42.500000	83.775	18.4700
43.099998	83.783	16.7148
43.700001	83.788	14.9820
44.400002	83.786	12.9890
45.000000	83.779	11.3109
45.500000	83.770	9.9367
46.200001	83.752	8.0519
46.799999	83.732	6.4757
47.500000	83.700	4.6889
48.200001	83.658	2.9592
48.700001	83.623	1.7529
49.400002	83.570	0.0943
50.000000	83.523	-1.3053
50.799999	83.460	-3.1411
51.500000	83.402	-4.7162
52.200001	83.341	-6.2568
53.000000	83.267	-7.9672
53.799999	83.189	-9.6166
54.500000	83.120	-11.0022
55.200001	83.047	-12.3272
56.000000	82.961	-13.7713
57.000000	82.851	-15.4994
58.000000	82.744	-17.1663
59.000000	82.641	-18.7699
60.000000	82.538	-20.3041
60.799999	82.458	-21.4834
61.500000	82.388	-22.4832
62.200001	82.320	-23.4575
63.000000	82.243	-24.5478
64.000000	82.147	-25.8885
65.000000	82.049	-27.1970
66.000000	81.950	-28.4523
67.000000	81.854	-29.6538
68.000000	81.764	-30.8136
69.000000	81.682	-31.9420
70.000000	81.606	-33.0489
71.000000	81.532	-34.1413
72.000000	81.456	-35.2112
73.000000	81.379	-36.2412
74.000000	81.303	-37.2313
75.000000	81.230	-38.2000
76.199997	81.143	-39.3516
77.500000	81.050	-40.5871
78.800003	80.960	-41.8119
80.000000	80.881	-42.9219
81.199997	80.805	-43.9942
82.500000	80.723	-45.1037
83.800003	80.642	-46.1889
85.000000	80.569	-47.1970
86.199997	80.498	-48.2109
87.500000	80.419	-49.3004
88.500000	80.358	-50.1350
90.000000	80.270	-51.3936
91.199997	80.203	-52.3921
92.500000	80.131	-53.4483
93.800003	80.059	-54.4775
95.000000	79.993	-55.4096
96.199997	79.927	-56.3207
97.500000	79.853	-57.2760
98.800003	79.779	-58.2081
100.000000	79.713	-59.0711
101.500000	79.635	-60.1712
103.000000	79.561	-61.2790
104.400002	79.490	-62.2977
106.000000	79.409	-63.4381
107.500000	79.332	-64.4894
109.000000	79.257	-65.5219
110.599998	79.180	-66.6054
112.000000	79.115	-67.5456
113.800003	79.029	-68.7458
115.000000	78.970	-69.5410
117.199997	78.859	-71.0054
118.000000	78.818	-71.5461
120.599998	78.681	-73.3189
122.000000	78.608	-74.2576
124.099998	78.502	-75.6139
125.000000	78.457	-76.1796
126.500000	78.381	-77.1107
128.000000	78.304	-78.0342
131.500000	78.125	-80.1442
132.000000	78.099	-80.4310
134.000000	78.001	-81.5347
136.000000	77.904	-82.6104
138.000000	77.806	-83.7127
140.000000	77.707	-84.8517
143.000000	77.560	-86.5805
145.000000	77.466	-87.7032
147.500000	77.351	-89.0550
150.000000	77.232	-90.3432
152.500000	77.109	-91.5862
155.000000	76.986	-92.7906
157.500000	76.863	-93.9647
160.000000	76.741	-95.1575
162.500000	76.627	-96.3602
165.000000	76.517	-97.5215
167.500000	76.409	-98.6254
170.000000	76.298	-99.6954
172.500000	76.181	-100.7596
175.000000	76.058	-101.8235
177.500000	75.938	-102.8765
180.000000	75.824	-103.9067
182.500000	75.713	-104.9201
185.000000	75.604	-105.9274
187.500000	75.499	-106.9317
190.000000	75.399	-107.9342
192.500000	75.303	-108.9415
195.000000	75.209	-109.9430
197.500000	75.119	-110.9108
200.000000	75.033	-111.8298
203.000000	74.935	-112.8765
206.000000	74.844	-113.8979
209.000000	74.757	-114.9094
212.000000	74.667	-115.9022
214.000000	74.608	-116.5602
218.000000	74.494	-117.8867
220.000000	74.442	-118.5557
224.000000	74.342	-119.8794
227.000000	74.268	-120.8524
230.000000	74.193	-121.8317
233.000000	74.120	-122.8246
236.000000	74.049	-123.8167
240.000000	73.956	-125.1122
243.000000	73.886	-126.0620
247.000000	73.792	-127.3231
250.000000	73.723	-128.2694
254.000000	73.637	-129.5163
258.000000	73.557	-130.7411
262.000000	73.475	-131.9552
265.000000	73.411	-132.8707
269.000000	73.324	-134.0995
272.000000	73.259	-135.0218
276.000000	73.173	-136.2378
280.000000	73.085	-137.4368
285.000000	72.971	-138.9109
290.000000	72.851	-140.3339
295.000000	72.730	-141.6649
300.000000	72.617	-142.8587
304.000000	72.535	-143.7260
307.000000	72.481	-144.3507
311.000000	72.419	-145.1829
315.000000	72.366	-146.0362
320.000000	72.304	-147.1459
325.000000	72.246	-148.3102
330.000000	72.190	-149.5029
335.000000	72.135	-150.7028
340.000000	72.082	-151.9056
345.000000	72.028	-153.0856
350.000000	71.973	-154.2146
355.000000	71.917	-155.3091
360.000000	71.859	-156.4012
365.000000	71.796	-157.4876
370.000000	71.727	-158.5588
375.000000	71.657	-159.6148
382.000000	71.567	-161.0451
387.000000	71.512	-162.0337
395.000000	71.435	-163.5528
400.000000	71.389	-164.4646
406.000000	71.333	-165.5427
412.000000	71.278	-166.6375
418.000000	71.223	-167.7643
425.000000	71.159	-169.0508
431.000000	71.102	-170.1004
437.000000	71.043	-171.1461
444.000000	70.974	-172.3866
450.000000	70.918	-173.4264
455.000000	70.873	-174.2598
462.000000	70.808	-175.3830
468.000000	70.752	-176.3030
475.000000	70.695	-177.3310
482.000000	70.649	-178.3191
487.000000	70.620	-179.0007
494.000000	70.581	-179.9312
500.000000	70.546	179.2725
508.000000	70.497	178.1800
515.000000	70.453	177.1833
522.000000	70.403	176.1622
530.000000	70.338	174.9906
538.000000	70.267	173.8550
545.000000	70.206	172.9184
552.000000	70.150	172.0449
560.000000	70.093	171.0959
570.000000	70.026	169.8813
580.000000	69.957	168.5481
590.000000	69.882	167.0790
600.000000	69.802	165.5505
608.000000	69.742	164.3497
615.000000	69.695	163.3417
622.000000	69.651	162.3792
630.000000	69.602	161.3333
640.000000	69.544	160.0859
650.000000	69.485	158.8671
660.000000	69.428	157.6722
670.000000	69.376	156.5149
680.000000	69.331	155.3672
690.000000	69.288	154.2051
700.000000	69.247	153.0479
710.000000	69.210	151.9454
720.000000	69.182	150.9054
730.000000	69.162	149.8761
740.000000	69.140	148.8214
750.000000	69.113	147.7477
762.000000	69.077	146.4381
775.000000	69.046	144.9875
788.000000	69.022	143.5499
800.000000	69.007	142.2715
812.000000	69.004	141.0527
825.000000	69.017	139.8019
838.000000	69.042	138.5967
850.000000	69.066	137.4519
862.000000	69.087	136.2137
875.000000	69.108	134.7861
885.000000	69.127	133.6584
900.000000	69.168	131.9438
912.000000	69.211	130.5522
925.000000	69.260	129.0090
938.000000	69.311	127.4176
950.000000	69.362	125.8802
962.000000	69.419	124.2543
975.000000	69.488	122.4132
988.000000	69.562	120.5304
1000.000000	69.632	118.7635
1015.000000	69.723	116.5019
1030.000000	69.813	114.1461
1044.000000	69.895	111.8229
1060.000000	69.985	109.0100
1075.000000	70.076	106.2373
1090.000000	70.174	103.3394
1106.000000	70.282	100.1038
1120.000000	70.376	97.1579
1138.000000	70.501	93.2988
1150.000000	70.589	90.7343
1172.000000	70.758	86.0712
1180.000000	70.819	84.3718
1206.000000	71.009	78.7628
1220.000000	71.109	75.6794
1241.000000	71.255	70.9609
1250.000000	71.315	68.8967
1265.000000	71.409	65.3868
1280.000000	71.495	61.7892
1315.000000	71.680	53.1596
1320.000000	71.706	51.9147
1340.000000	71.810	46.9350
1360.000000	71.908	41.9488
1380.000000	71.999	36.8956
1400.000000	72.086	31.7460
1430.000000	72.211	23.8774
1450.000000	72.291	18.6384
1475.000000	72.395	12.3102
1500.000000	72.511	6.3607
1525.000000	72.640	0.7660
1550.000000	72.779	-4.6392
1575.000000	72.923	-10.0089
1600.000000	73.065	-15.4374
1625.000000	73.212	-20.8269
1650.000000	73.372	-26.0118
1675.000000	73.553	-30.9299
1700.000000	73.746	-35.6108
1725.000000	73.940	-40.1180
1750.000000	74.129	-44.4696
1775.000000	74.314	-48.7096
1800.000000	74.494	-52.8994
1825.000000	74.663	-57.0862
1850.000000	74.822	-61.2632
1875.000000	74.978	-65.3147
1900.000000	75.138	-69.1168
1925.000000	75.302	-72.6372
1950.000000	75.466	-75.9320
1975.000000	75.627	-79.0906
2000.000000	75.786	-82.1818
2030.000000	75.975	-85.8286
2060.000000	76.166	-89.3322
2090.000000	76.366	-92.5903
2120.000000	76.573	-95.6082
2140.000000	76.712	-97.5048
2180.000000	76.991	-101.0250
2200.000000	77.132	-102.6527
2240.000000	77.424	-105.6603
2270.000000	77.651	-107.7684
2300.000000	77.880	-109.8508
2330.000000	78.104	-111.9760
2360.000000	78.320	-114.1873
2400.000000	78.583	-117.3271
2430.000000	78.762	-119.8083
2470.000000	78.980	-123.1349
2500.000000	79.131	-125.5410
2540.000000	79.316	-128.6044
2580.000000	79.483	-131.6524
2620.000000	79.619	-134.9197
2650.000000	79.698	-137.5964
2690.000000	79.779	-141.4312
2720.000000	79.823	-144.4453
2760.000000	79.859	-148.5269
2800.000000	79.869	-152.5491
2850.000000	79.841	-157.3653
2900.000000	79.778	-161.8922
2950.000000	79.677	-166.1338
3000.000000	79.538	-170.1505
3040.000000	79.400	-173.2104
3070.000000	79.281	-175.3673
3110.000000	79.107	-177.9483
3150.000000	78.920	179.9259
3200.000000	78.674	177.9105
3250.000000	78.405	176.3846
3300.000000	78.105	175.1484
3350.000000	77.786	174.2712
3400.000000	77.467	173.9522
3450.000000	77.159	174.2001
3500.000000	76.855	174.7944
3550.000000	76.552	175.6027
3600.000000	76.266	176.7269
3650.000000	76.009	178.2155
3700.000000	75.776	179.8375
3750.000000	75.559	-178.7125
3820.000000	75.292	-177.0450
3870.000000	75.136	-175.9015
3950.000000	74.942	-173.8011
4000.000000	74.855	-172.1839
4060.000000	74.788	-169.8560
4120.000000	74.762	-167.2042
4180.000000	74.772	-164.4295
4250.000000	74.822	-161.2422
4310.000000	74.892	-158.6821
4370.000000	74.984	-156.3152
4440.000000	75.121	-153.6931
4500.000000	75.266	-151.4924
4550.000000	75.405	-149.7483
4620.000000	75.622	-147.6923
4680.000000	75.825	-146.4693
4750.000000	76.080	-145.7004
4820.000000	76.345	-145.5508
4870.000000	76.532	-145.7688
4940.000000	76.783	-146.4692
5000.000000	76.983	-147.3998
5080.000000	77.218	-149.0667
5150.000000	77.383	-150.8256
5220.000000	77.504	-152.6248
5300.000000	77.599	-154.5091
5380.000000	77.634	-156.3994
5450.000000	77.602	-158.2709
5520.000000	77.509	-160.2719
5600.000000	77.339	-162.4257
5700.000000	77.073	-164.6837
5800.000000	76.761	-166.8955
5900.000000	76.344	-169.2542
6000.000000	75.796	-171.3846
6080.000000	75.283	-172.5815
6150.000000	74.807	-173.0213
6220.000000	74.333	-172.8227
6300.000000	73.842	-171.9371
6400.000000	73.356	-170.3641
6500.000000	72.972	-168.5188
6600.000000	72.650	-166.0319
6700.000000	72.413	-162.9669
6800.000000	72.300	-159.6804
6900.000000	72.342	-156.2511
7000.000000	72.547	-152.8239
7100.000000	72.904	-149.6686
7200.000000	73.401	-146.9701
7300.000000	74.022	-144.9593
7400.000000	74.748	-143.8566
7500.000000	75.547	-143.9614
7620.000000	76.527	-146.2906
7750.000000	77.483	-152.1489
7880.000000	78.169	-161.3847
8000.000000	78.458	-171.6697
8120.000000	78.379	178.0755
8250.000000	77.900	168.3461
8380.000000	77.098	160.6545
8500.000000	76.177	155.5026
8620.000000	75.184	152.1235
8750.000000	74.106	149.8615
8850.000000	73.310	148.5936
9000.000000	72.204	146.9177
9120.000000	71.406	145.7349
9250.000000	70.628	144.7477
9380.000000	69.931	144.1198
9500.000000	69.350	143.8274
9620.000000	68.822	143.9494
9750.000000	68.310	144.8730
9880.000000	67.860	146.8226
10000.000000	67.493	149.4172
10150.000000	67.087	153.1459
10300.000000	66.727	156.6566
10440.000000	66.432	159.5776
10600.000000	66.160	163.1622
10750.000000	65.979	167.2191
10900.000000	65.866	171.9354
11060.000000	65.818	177.7306
11200.000000	65.835	-176.6176
11380.000000	65.934	-169.2405
11500.000000	66.043	-164.6935
11720.000000	66.341	-157.2953
11800.000000	66.486	-154.8187
12060.000000	67.108	-147.6007
12200.000000	67.543	-144.4556
12410.000000	68.348	-140.8789
12500.000000	68.755	-139.8447
12650.000000	69.520	-138.9951
12800.000000	70.385	-139.6147
13150.000000	72.597	-149.2462
13200.000000	72.902	-151.6163
13400.000000	73.977	-163.4010
13600.000000	74.656	-178.3953
13800.000000	74.788	164.7394
14000.000000	74.344	147.9438
14300.000000	72.817	125.2867
14500.000000	71.483	111.9130
14750.000000	69.793	97.5580
15000.000000	68.338	86.3546
15250.000000	67.273	77.1888
15500.000000	66.644	67.9108
15750.000000	66.436	58.0841
16000.000000	66.551	48.2637
16250.000000	66.804	37.4289
16500.000000	66.968	24.9103
16750.000000	66.834	11.8342
17000.000000	66.247	-0.8287
17250.000000	65.188	-12.7001
17500.000000	63.790	-23.0618
17750.000000	62.238	-31.8237
18000.000000	60.692	-40.1460
18250.000000	59.252	-49.0392
18500.000000	57.960	-58.1818
18750.000000	56.811	-66.6500
19000.000000	55.803	-73.5219
19250.000000	54.941	-78.2173
19500.000000	54.219	-80.8918
19750.000000	53.654	-82.1969
20000.000000	53.334	-82.7254
